wavelength       flux
  microns         mJy
      
      0.80013400       288.64664
      0.80040097       307.63866
      0.80066800       307.08537
      0.80093497       305.06784
      0.80120200       314.41316
      0.80146903       309.23065
      0.80173600       317.87139
      0.80200303       311.08349
      0.80227000       311.76547
      0.80253798       317.64508
      0.80280501       297.25613
      0.80307299       297.73388
      0.80334002       317.19390
      0.80360800       308.04805
      0.80387598       318.76167
      0.80414498       315.87311
      0.80441201       318.11534
      0.80467999       306.80096
      0.80494899       284.60716
      0.80521703       309.36390
      0.80548501       317.77419
      0.80575401       312.34492
      0.80602199       321.60081
      0.80629098       316.60285
      0.80655998       314.73312
      0.80682898       318.99693
      0.80709797       309.56540
      0.80736703       297.73473
      0.80763602       301.65295
      0.80790502       320.06820
      0.80817401       314.33514
      0.80844402       312.67334
      0.80871302       303.46534
      0.80898303       326.46015
      0.80925298       302.62379
      0.80952299       294.41587
      0.80979198       312.79102
      0.81006199       309.93525
      0.81033200       317.82698
      0.81060201       312.87404
      0.81087202       314.78431
      0.81114298       310.01053
      0.81141299       322.72121
      0.81168300       307.99810
      0.81195402       312.47466
      0.81222498       322.17089
      0.81249499       326.43480
      0.81276602       316.29344
      0.81303698       321.68110
      0.81330800       317.23730
      0.81357902       330.45395
      0.81384999       318.07691
      0.81412202       321.42394
      0.81439298       322.51081
      0.81466401       327.34881
      0.81493598       326.52032
      0.81520802       307.31924
      0.81547898       326.61233
      0.81575102       323.51804
      0.81602299       331.66635
      0.81629598       315.89809
      0.81656700       326.35302
      0.81683898       330.50985
      0.81711203       325.41860
      0.81738400       332.29593
      0.81765699       324.91065
      0.81792998       334.23796
      0.81820202       316.11717
      0.81847501       315.53138
      0.81874698       332.59463
      0.81901997       315.82390
      0.81929302       345.02685
      0.81956702       310.68802
      0.81984001       312.37025
      0.82011300       324.46805
      0.82038599       331.15879
      0.82066000       315.10287
      0.82093298       322.89643
      0.82120699       334.35481
      0.82147998       315.39679
      0.82175398       332.96395
      0.82202798       344.96080
      0.82230198       309.64015
      0.82257599       338.26458
      0.82284999       346.81716
      0.82312500       334.53685
      0.82339901       320.44171
      0.82367402       337.40736
      0.82394898       339.93481
      0.82422298       335.80981
      0.82449800       331.08233
      0.82477301       350.23363
      0.82504803       332.96248
      0.82532299       338.82695
      0.82559800       342.65251
      0.82587302       337.85976
      0.82614797       347.14412
      0.82642299       349.75725
      0.82669902       344.50246
      0.82697397       337.54528
      0.82725000       348.19842
      0.82752699       337.13230
      0.82780200       342.54126
      0.82807702       349.74586
      0.82835299       345.55174
      0.82862997       351.18997
      0.82890600       340.45792
      0.82918298       347.32083
      0.82945901       341.00649
      0.82973498       343.00046
      0.83001202       336.57432
      0.83028901       351.05649
      0.83056498       344.59353
      0.83084202       328.48265
      0.83111900       334.20325
      0.83139598       337.53712
      0.83167398       348.16895
      0.83195102       347.88196
      0.83222800       340.81944
      0.83250499       352.78425
      0.83278298       343.81577
      0.83306098       325.01701
      0.83333802       333.00392
      0.83361602       337.67060
      0.83389300       347.14886
      0.83417100       345.15128
      0.83444899       348.58279
      0.83472800       341.12027
      0.83500600       330.89741
      0.83528399       360.89093
      0.83556300       347.81533
      0.83584100       357.50225
      0.83612001       352.08746
      0.83639902       353.32244
      0.83667803       322.60706
      0.83695698       367.45410
      0.83723497       348.69848
      0.83751500       358.33405
      0.83779401       364.44761
      0.83807302       345.81526
      0.83835298       345.30067
      0.83863199       343.48205
      0.83891100       314.86427
      0.83919102       347.81553
      0.83947098       372.63705
      0.83974999       368.53285
      0.84003001       345.99450
      0.84030998       350.34492
      0.84059000       364.58460
      0.84087002       366.29379
      0.84115100       370.43593
      0.84143102       349.28296
      0.84171200       371.24922
      0.84199202       350.73866
      0.84227300       362.14616
      0.84255397       351.60128
      0.84283501       339.70325
      0.84311599       376.63455
      0.84339702       371.93964
      0.84367800       325.35807
      0.84395897       375.66472
      0.84424001       346.72480
      0.84452200       374.32669
      0.84480298       363.92699
      0.84508502       369.97129
      0.84536600       371.49867
      0.84564799       377.14938
      0.84592998       364.93064
      0.84621298       374.40921
      0.84649402       378.14856
      0.84677601       366.59765
      0.84705800       338.44370
      0.84734100       366.64815
      0.84762299       385.55953
      0.84790599       379.17864
      0.84818900       375.60944
      0.84847099       368.57961
      0.84875399       382.22221
      0.84903699       378.76605
      0.84931999       383.69598
      0.84960300       380.50346
      0.84988600       321.20839
      0.85017002       319.05481
      0.85045302       370.91317
      0.85073602       376.88776
      0.85101998       387.94195
      0.85130399       384.36109
      0.85158700       348.62683
      0.85187101       366.33740
      0.85215598       366.29235
      0.85243899       384.63013
      0.85272300       383.56102
      0.85300797       369.41969
      0.85329199       381.34229
      0.85357702       384.67541
      0.85386097       365.52368
      0.85414600       336.42575
      0.85443097       219.87190
      0.85471499       336.35566
      0.85500002       359.37879
      0.85528499       383.18317
      0.85557002       392.99367
      0.85585600       377.64384
      0.85614097       392.88464
      0.85642600       387.70456
      0.85671198       388.25111
      0.85699701       386.84462
      0.85728300       393.51810
      0.85756898       388.67416
      0.85785401       391.54835
      0.85813999       400.21036
      0.85842597       376.78720
      0.85871202       391.36958
      0.85899901       394.46096
      0.85928500       395.55087
      0.85957199       395.44502
      0.85985798       393.05840
      0.86014497       391.11298
      0.86043203       395.10286
      0.86071801       386.00346
      0.86100501       398.45472
      0.86129200       372.31915
      0.86157900       401.61359
      0.86186701       398.86067
      0.86215401       401.56189
      0.86244100       385.86212
      0.86272901       401.92830
      0.86301601       403.13537
      0.86330402       402.44184
      0.86359102       401.09234
      0.86387998       401.47259
      0.86416698       401.26544
      0.86445498       395.04051
      0.86474299       411.62622
      0.86503202       387.18227
      0.86532098       408.37092
      0.86560899       400.55660
      0.86589700       401.69145
      0.86618602       366.21196
      0.86647499       239.67583
      0.86676401       377.78315
      0.86705297       398.63746
      0.86734200       400.72756
      0.86763102       367.84811
      0.86791998       407.32758
      0.86820900       390.38268
      0.86849898       399.30506
      0.86878800       407.40253
      0.86907798       337.77968
      0.86936700       399.34032
      0.86965698       408.63226
      0.86994702       420.29286
      0.87023699       384.67219
      0.87052798       409.71342
      0.87081701       417.48984
      0.87110698       416.75036
      0.87139797       389.16212
      0.87168801       411.57382
      0.87197900       409.52905
      0.87226897       417.73022
      0.87256002       418.13042
      0.87285101       424.56079
      0.87314200       407.31327
      0.87343299       424.76239
      0.87372398       397.18336
      0.87401497       414.07628
      0.87430698       421.20458
      0.87459898       413.62594
      0.87489003       418.75891
      0.87518102       418.47949
      0.87547302       407.31561
      0.87576598       429.22181
      0.87605798       403.12056
      0.87634999       431.66157
      0.87664098       412.46933
      0.87693298       417.31153
      0.87722498       426.12635
      0.87751800       400.26273
      0.87781000       426.96763
      0.87810302       425.49875
      0.87839597       434.53825
      0.87868899       426.69517
      0.87898201       431.29270
      0.87927502       417.36327
      0.87956798       416.16141
      0.87986100       429.04501
      0.88015401       434.70101
      0.88044798       435.40857
      0.88074100       409.15253
      0.88103402       373.31452
      0.88132799       433.30673
      0.88162202       437.05618
      0.88191599       439.20408
      0.88220900       426.53466
      0.88250399       427.38578
      0.88279802       400.27586
      0.88309199       439.85800
      0.88338602       445.10727
      0.88368100       432.88442
      0.88397598       415.23655
      0.88427001       432.00127
      0.88456500       440.26188
      0.88485998       434.23598
      0.88515502       444.10444
      0.88545001       445.88981
      0.88574499       446.82971
      0.88604099       445.97736
      0.88633603       439.02791
      0.88663101       427.77015
      0.88692701       426.20184
      0.88722199       440.04490
      0.88751799       451.02231
      0.88781399       439.72482
      0.88810998       434.43574
      0.88840598       449.91662
      0.88870198       447.97879
      0.88899899       452.63086
      0.88929498       450.25038
      0.88959098       444.91749
      0.88988698       451.80975
      0.89018399       453.33593
      0.89048100       453.88695
      0.89077801       456.11120
      0.89107502       449.88066
      0.89137203       452.31778
      0.89166898       457.63282
      0.89196599       455.58696
      0.89226300       439.20490
      0.89256102       444.03000
      0.89285898       448.44114
      0.89315599       446.08791
      0.89345300       444.97821
      0.89375198       461.48179
      0.89404899       461.22912
      0.89434701       460.75993
      0.89464498       436.95239
      0.89494300       441.54997
      0.89524198       455.74595
      0.89554000       466.68364
      0.89583898       462.58631
      0.89613801       462.11607
      0.89643598       458.68184
      0.89673501       457.70509
      0.89703399       452.31175
      0.89733303       468.25627
      0.89763200       459.50392
      0.89793098       444.88888
      0.89823103       460.77198
      0.89853001       467.66820
      0.89882898       460.18990
      0.89912897       456.85942
      0.89942902       466.57052
      0.89972800       461.57998
      0.90002799       464.91035
      0.90032798       432.59548
      0.90062898       472.58395
      0.90092897       468.87356
      0.90122998       436.07966
      0.90153003       441.65912
      0.90183002       447.92588
      0.90213102       467.51131
      0.90243101       455.63862
      0.90273201       468.99659
      0.90303302       467.41250
      0.90333402       471.74022
      0.90363598       480.75270
      0.90393698       465.80049
      0.90423799       481.52798
      0.90453899       481.55861
      0.90484101       479.69199
      0.90514201       481.12409
      0.90544498       472.00887
      0.90574598       482.43631
      0.90604699       478.07524
      0.90635002       461.24331
      0.90665197       481.83799
      0.90695399       481.43317
      0.90725601       476.85522
      0.90755898       485.67284
      0.90786099       486.26930
      0.90816402       456.92068
      0.90846699       488.55205
      0.90877002       478.57572
      0.90907300       431.97550
      0.90937603       474.80058
      0.90967900       469.42271
      0.90998203       486.77301
      0.91028500       468.71998
      0.91058898       477.51050
      0.91089201       472.18041
      0.91119599       479.13172
      0.91149998       472.54811
      0.91180301       484.83358
      0.91210699       465.10296
      0.91241097       493.75884
      0.91271502       483.08443
      0.91302001       495.29049
      0.91332400       494.01890
      0.91362798       494.65641
      0.91393298       490.43768
      0.91423798       467.89417
      0.91454202       469.61401
      0.91484702       469.90260
      0.91515201       472.56074
      0.91545701       489.30984
      0.91576201       472.28335
      0.91606802       483.53306
      0.91637301       489.75745
      0.91667801       476.70005
      0.91698402       458.44973
      0.91728997       463.10472
      0.91759598       445.63671
      0.91790098       481.08421
      0.91820699       476.72477
      0.91851300       472.31277
      0.91881901       483.90577
      0.91912597       470.55169
      0.91943198       472.59526
      0.91973901       485.86923
      0.92004502       462.02010
      0.92035198       479.74307
      0.92065901       474.77352
      0.92096603       475.79544
      0.92127299       453.83925
      0.92158002       468.96293
      0.92188698       469.89109
      0.92219400       470.37766
      0.92250198       508.65737
      0.92280900       460.90306
      0.92311698       479.16985
      0.92342401       466.09701
      0.92373198       494.57330
      0.92404002       481.50119
      0.92434800       472.41835
      0.92465597       498.27754
      0.92496401       474.22826
      0.92527300       488.86630
      0.92558098       501.39772
      0.92589003       459.95686
      0.92619801       467.21697
      0.92650700       478.81747
      0.92681599       505.95883
      0.92712498       509.79315
      0.92743403       483.04988
      0.92774302       513.83294
      0.92805201       489.07952
      0.92836201       489.09227
      0.92867100       524.00857
      0.92898101       484.56948
      0.92929000       479.16492
      0.92960000       503.16891
      0.92991000       480.53027
      0.93022001       519.46852
      0.93053001       511.03722
      0.93084002       486.87284
      0.93115002       525.24374
      0.93146098       504.79406
      0.93177098       517.31969
      0.93208200       491.52448
      0.93239301       510.77888
      0.93270302       511.40496
      0.93301398       497.65612
      0.93332499       535.75609
      0.93363601       496.80785
      0.93394798       520.86681
      0.93425900       522.94886
      0.93457001       519.21698
      0.93488199       517.56439
      0.93519300       499.83952
      0.93550599       529.63576
      0.93581700       506.22643
      0.93612897       507.73931
      0.93644100       503.06808
      0.93675297       522.61833
      0.93706501       513.24689
      0.93737799       517.71020
      0.93769002       516.97427
      0.93800300       532.04053
      0.93831599       507.03389
      0.93862802       512.28950
      0.93894100       522.38898
      0.93925399       526.81695
      0.93956703       510.36158
      0.93988001       505.32222
      0.94019401       531.65911
      0.94050699       517.22845
      0.94081998       499.94949
      0.94113398       528.45081
      0.94144797       495.43934
      0.94176102       476.91178
      0.94207501       517.43833
      0.94238901       515.40992
      0.94270402       520.50700
      0.94301802       538.84984
      0.94333202       502.37016
      0.94364703       517.64960
      0.94396198       515.25412
      0.94427598       512.53312
      0.94459099       520.01099
      0.94490600       511.62082
      0.94522101       529.72928
      0.94553602       522.90054
      0.94585103       529.79090
      0.94616598       535.49183
      0.94648099       516.84358
      0.94679701       540.64886
      0.94711298       532.14168
      0.94742799       553.23451
      0.94774401       541.57725
      0.94805998       527.24797
      0.94837600       539.06045
      0.94869298       536.12168
      0.94900799       524.45342
      0.94932503       562.34934
      0.94964099       533.11349
      0.94995803       546.82423
      0.95027399       548.56409
      0.95059103       534.43065
      0.95090801       549.77306
      0.95122498       525.15200
      0.95154202       549.11087
      0.95185900       561.42966
      0.95217699       527.87475
      0.95249403       571.81501
      0.95281100       540.29096
      0.95312899       543.46929
      0.95344698       574.71424
      0.95376402       523.42598
      0.95408201       571.77777
      0.95440000       561.29224
      0.95471799       512.54676
      0.95503700       549.04420
      0.95535499       551.41597
      0.95567399       557.16017
      0.95599198       546.63488
      0.95631099       555.18572
      0.95662999       557.24549
      0.95694900       573.44038
      0.95726800       540.84684
      0.95758700       537.03942
      0.95790601       568.01296
      0.95822501       554.07820
      0.95854402       571.10449
      0.95886397       555.60150
      0.95918298       569.86232
      0.95950300       583.29018
      0.95982301       558.69431
      0.96014398       542.06475
      0.96046299       575.56869
      0.96078300       555.51252
      0.96110302       555.99469
      0.96142399       589.06525
      0.96174401       579.27403
      0.96206498       575.38098
      0.96238601       569.47103
      0.96270698       557.74392
      0.96302801       569.17478
      0.96334898       594.00851
      0.96367002       564.86848
      0.96399099       531.02498
      0.96431202       587.71843
      0.96463299       580.68296
      0.96495599       549.10006
      0.96527702       584.67548
      0.96559799       567.76083
      0.96592098       573.59311
      0.96624202       570.87239
      0.96656400       565.49577
      0.96688598       585.28703
      0.96720898       584.32334
      0.96753198       585.50063
      0.96785402       546.00728
      0.96817601       594.72435
      0.96849900       587.27412
      0.96882200       593.85120
      0.96914500       571.93403
      0.96946800       576.93514
      0.96979100       593.46123
      0.97011399       601.74174
      0.97043800       587.35073
      0.97076100       560.88599
      0.97108501       609.71096
      0.97140801       608.69748
      0.97173202       590.76713
      0.97205698       579.09245
      0.97237998       596.15541
      0.97270399       606.78149
      0.97302800       569.62360
      0.97335303       598.44772
      0.97367698       589.71002
      0.97400200       571.87880
      0.97432703       614.28024
      0.97465199       575.22172
      0.97497600       573.92493
      0.97530198       615.21477
      0.97562701       599.72266
      0.97595203       607.18238
      0.97627699       606.62312
      0.97660202       588.04698
      0.97692800       624.32720
      0.97725302       576.35878
      0.97757900       614.34100
      0.97790498       625.35546
      0.97823101       600.60145
      0.97855699       575.27295
      0.97888398       582.16241
      0.97921002       608.11416
      0.97953600       611.75978
      0.97986299       625.02461
      0.98018998       608.73635
      0.98051602       620.20671
      0.98084301       622.89000
      0.98117000       624.67709
      0.98149699       619.64605
      0.98182398       625.96832
      0.98215199       630.19342
      0.98247898       622.04845
      0.98280698       609.92336
      0.98313397       632.45775
      0.98346102       612.17863
      0.98378998       623.14221
      0.98411798       634.22532
      0.98444498       627.22954
      0.98477298       631.52924
      0.98510098       623.77043
      0.98543000       633.08686
      0.98575801       631.14117
      0.98608702       650.30033
      0.98641598       620.40208
      0.98674500       643.04628
      0.98707402       644.62730
      0.98740298       629.68221
      0.98773199       643.26097
      0.98806101       652.31676
      0.98839098       627.49294
      0.98872000       645.68398
      0.98904902       629.51202
      0.98937899       625.79888
      0.98970801       657.29595
      0.99003798       635.10528
      0.99036801       631.75470
      0.99069899       635.07437
      0.99102902       649.55168
      0.99135900       646.37004
      0.99168998       631.62366
      0.99202001       658.95860
      0.99235100       643.54070
      0.99268198       643.33234
      0.99301302       650.53243
      0.99334401       640.93943
      0.99367499       652.99742
      0.99400598       658.83406
      0.99433702       642.45025
      0.99466902       645.87589
      0.99500000       657.15873
      0.99533200       648.47149
      0.99566400       653.55081
      0.99599499       661.64680
      0.99632698       663.36854
      0.99665999       661.09053
      0.99699199       664.86086
      0.99732399       654.66692
      0.99765700       652.18887
      0.99798900       665.77701
      0.99832201       664.84103
      0.99865502       670.18119
      0.99898797       658.18543
      0.99932098       672.02118
      0.99965400       660.09672
      0.99996001       669.15278
       1.0003200       667.97976
       1.0006500       670.54270
       1.0009900       654.41984
       1.0013200       665.29118
       1.0016500       686.49701
       1.0019900       682.77411
       1.0023201       675.67178
       1.0026600       687.74529
       1.0029900       667.65183
       1.0033300       677.35566
       1.0036600       675.01662
       1.0039901       668.82749
       1.0043300       685.82094
       1.0046600       687.52892
       1.0050000       662.87976
       1.0053300       655.17755
       1.0056700       676.63380
       1.0060000       667.77490
       1.0063400       674.71046
       1.0066800       662.80302
       1.0070100       687.62431
       1.0073500       699.26027
       1.0076801       696.49177
       1.0080200       676.08018
       1.0083500       690.26532
       1.0086900       680.96630
       1.0090300       688.73382
       1.0093600       693.23308
       1.0096999       694.04901
       1.0100400       699.11403
       1.0103700       690.89280
       1.0107100       664.52197
       1.0110500       707.63707
       1.0113800       696.74529
       1.0117199       694.21850
       1.0120600       699.38381
       1.0123900       705.17512
       1.0127300       701.62877
       1.0130700       708.93363
       1.0134100       711.97626
       1.0137500       705.52730
       1.0140800       711.49634
       1.0144200       702.42652
       1.0147600       684.27731
       1.0151000       699.34548
       1.0154400       707.27447
       1.0157700       686.59085
       1.0161099       719.82478
       1.0164500       711.81782
       1.0167900       703.51674
       1.0171300       705.34204
       1.0174700       708.04383
       1.0178100       722.32359
       1.0181500       714.23382
       1.0184900       708.44601
       1.0188299       702.10691
       1.0191700       721.69347
       1.0195100       698.79038
       1.0198500       709.68045
       1.0201800       716.14472
       1.0205200       714.05843
       1.0208600       727.10274
       1.0211999       720.02591
       1.0215501       710.10081
       1.0218900       702.12316
       1.0222300       710.83877
       1.0225700       721.82237
       1.0229100       727.94705
       1.0232500       733.55162
       1.0235900       724.64032
       1.0239300       733.71473
       1.0242701       729.28255
       1.0246100       741.11139
       1.0249600       733.53980
       1.0253000       739.99746
       1.0256400       739.04757
       1.0259800       740.98576
       1.0263200       735.24996
       1.0266700       728.89826
       1.0270100       746.16110
       1.0273499       735.37038
       1.0276901       744.93505
       1.0280401       749.30588
       1.0283800       748.77411
       1.0287200       743.93502
       1.0290600       712.00277
       1.0294100       752.28671
       1.0297500       753.32025
       1.0300900       742.22035
       1.0304400       742.59267
       1.0307800       755.09696
       1.0311199       751.42957
       1.0314699       750.42091
       1.0318100       755.57121
       1.0321600       758.24090
       1.0325000       754.72658
       1.0328400       743.41047
       1.0331900       719.25297
       1.0335300       750.04174
       1.0338800       751.55668
       1.0342200       738.81597
       1.0345600       727.49558
       1.0349100       753.08088
       1.0352499       763.16084
       1.0355999       753.12745
       1.0359499       762.16399
       1.0362900       773.42475
       1.0366400       761.50549
       1.0369800       771.66701
       1.0373300       731.72227
       1.0376700       755.82450
       1.0380200       742.63473
       1.0383700       775.98544
       1.0387100       779.52424
       1.0390600       775.10653
       1.0394000       768.77583
       1.0397500       747.60062
       1.0401000       740.80360
       1.0404400       780.07934
       1.0407900       772.70545
       1.0411400       774.72302
       1.0414799       782.10281
       1.0418299       770.13885
       1.0421799       789.14427
       1.0425299       750.48878
       1.0428700       771.97465
       1.0432200       786.78859
       1.0435700       782.47327
       1.0439200       779.44852
       1.0442700       788.66256
       1.0446100       793.24408
       1.0449600       788.58201
       1.0453100       793.45469
       1.0456600       787.50423
       1.0460100       782.83999
       1.0463600       774.25740
       1.0467000       799.55356
       1.0470500       775.85786
       1.0474000       765.87119
       1.0477500       797.36014
       1.0481000       793.36847
       1.0484500       788.80996
       1.0488000       784.77087
       1.0491500       805.69947
       1.0495000       806.28434
       1.0498500       776.83302
       1.0502000       808.22533
       1.0505500       792.82736
       1.0509000       801.69839
       1.0512500       792.59708
       1.0516000       804.83401
       1.0519500       803.82145
       1.0523000       809.91776
       1.0526500       812.05917
       1.0530000       813.33575
       1.0533500       777.21988
       1.0537000       813.25318
       1.0540500       815.54347
       1.0544100       809.20041
       1.0547600       823.30718
       1.0551100       817.81822
       1.0554600       803.20439
       1.0558100       819.92954
       1.0561600       817.21204
       1.0565200       824.63335
       1.0568700       818.07999
       1.0572200       812.48553
       1.0575700       808.39450
       1.0579300       804.51922
       1.0582800       821.73984
       1.0586300       756.84545
       1.0589800       781.04983
       1.0593400       817.80663
       1.0596900       823.86539
       1.0600400       832.81486
       1.0604000       828.32080
       1.0607500       770.56560
       1.0611000       823.92455
       1.0614600       832.92176
       1.0618100       824.27992
       1.0621700       828.98739
       1.0625200       837.91556
       1.0628700       819.83065
       1.0632300       818.16551
       1.0635800       838.33383
       1.0639400       839.31218
       1.0642900       845.94119
       1.0646501       843.35477
       1.0650001       834.30555
       1.0653600       846.39141
       1.0657099       842.49203
       1.0660700       849.65119
       1.0664200       774.89079
       1.0667800       847.54507
       1.0671300       836.85597
       1.0674900       833.58912
       1.0678400       837.65877
       1.0682000       852.50459
       1.0685600       831.62256
       1.0689100       838.57165
       1.0692700       801.74597
       1.0696300       822.05680
       1.0699800       860.30763
       1.0703400       833.63445
       1.0707000       831.99053
       1.0710500       840.75303
       1.0714099       861.87077
       1.0717700       852.76325
       1.0721200       838.27140
       1.0724800       865.88693
       1.0728400       820.58789
       1.0732000       822.81365
       1.0735500       829.78607
       1.0739100       869.96979
       1.0742700       864.76515
       1.0746300       850.59890
       1.0749900       862.85044
       1.0753500       823.92766
       1.0757000       839.48951
       1.0760601       872.86588
       1.0764199       874.25363
       1.0767800       871.83334
       1.0771400       864.20771
       1.0775000       876.56343
       1.0778600       862.81794
       1.0782200       871.73406
       1.0785800       833.94255
       1.0789400       827.42456
       1.0793000       880.46686
       1.0796601       866.56914
       1.0800101       869.97213
       1.0803699       873.22848
       1.0807300       874.70260
       1.0810900       869.32591
       1.0814500       809.29269
       1.0818200       883.84823
       1.0821800       863.98529
       1.0825400       880.75304
       1.0829000       818.28189
       1.0832601       876.60619
       1.0836200       865.30656
       1.0839800       892.13135
       1.0843400       883.71451
       1.0847000       850.82148
       1.0850700       887.36456
       1.0854300       895.42401
       1.0857900       895.68088
       1.0861501       897.35504
       1.0865099       874.88624
       1.0868700       902.35117
       1.0872400       800.36553
       1.0876000       863.95598
       1.0879600       891.82736
       1.0883300       879.41015
       1.0886900       839.14471
       1.0890501       895.25810
       1.0894099       886.46614
       1.0897800       866.17591
       1.0901400       906.10502
       1.0905000       907.21188
       1.0908700       896.14276
       1.0912300       906.43691
       1.0915999       905.35252
       1.0919600       877.38699
       1.0923200       901.80882
       1.0926900       897.55866
       1.0930500       835.07305
       1.0934200       868.50912
       1.0937800       885.87924
       1.0941401       847.11537
       1.0945100       877.26524
       1.0948700       895.23625
       1.0952400       882.17282
       1.0956000       857.09995
       1.0959700       871.87004
       1.0963300       901.06146
       1.0967000       792.10154
       1.0970600       824.71693
       1.0974300       881.56221
       1.0978000       872.81208
       1.0981600       815.98569
       1.0985301       872.34304
       1.0988899       850.00003
       1.0992600       883.02428
       1.0996300       891.10332
       1.0999900       831.05215
       1.1003600       886.97047
       1.1007299       859.71762
       1.1010900       891.05061
       1.1014600       866.84483
       1.1018300       865.33960
       1.1022000       854.94275
       1.1025600       861.37336
       1.1029299       915.03684
       1.1033000       842.87267
       1.1036700       899.21812
       1.1040300       869.76828
       1.1044000       917.18844
       1.1047699       881.90413
       1.1051400       892.43424
       1.1055100       926.75746
       1.1058800       890.11744
       1.1062400       879.94581
       1.1066099       911.04339
       1.1069800       913.07984
       1.1073500       905.33425
       1.1077200       913.46010
       1.1080900       895.12414
       1.1084599       905.38665
       1.1088300       941.52958
       1.1092000       901.93065
       1.1095700       898.05514
       1.1099401       911.81859
       1.1103100       933.70181
       1.1106800       895.66976
       1.1110500       925.53236
       1.1114200       941.13945
       1.1117899       936.76349
       1.1121600       868.78954
       1.1125300       940.69343
       1.1129000       941.00682
       1.1132700       924.47495
       1.1136400       883.23295
       1.1140100       971.06961
       1.1143900       948.66059
       1.1147600       875.18789
       1.1151299       950.28111
       1.1155000       953.37887
       1.1158700       939.99784
       1.1162400       903.52295
       1.1166199       976.70598
       1.1169900       958.19261
       1.1173600       932.97801
       1.1177300       926.18091
       1.1181099       976.33334
       1.1184800       959.52120
       1.1188500       920.66411
       1.1192200       898.00149
       1.1196001       972.60414
       1.1199700       924.17438
       1.1203400       932.91495
       1.1207200       946.49158
       1.1210901       971.07653
       1.1214600       951.71831
       1.1218400       960.94277
       1.1222100       978.52560
       1.1225899       960.18887
       1.1229600       954.19822
       1.1233300       949.16508
       1.1237100       984.52822
       1.1240799       978.03363
       1.1244600       984.46463
       1.1248300       909.04534
       1.1252100       1004.7081
       1.1255800       898.90940
       1.1259600       937.19039
       1.1263300       906.83621
       1.1267101       1006.5621
       1.1270800       992.40792
       1.1274600       996.00169
       1.1278400       956.56960
       1.1282099       955.30189
       1.1285900       1011.1680
       1.1289600       990.17073
       1.1293401       964.39395
       1.1297200       966.31309
       1.1300900       930.53012
       1.1304700       1016.6509
       1.1308500       998.38364
       1.1312200       969.72454
       1.1316000       945.86301
       1.1319799       1009.0657
       1.1323600       1014.3107
       1.1327300       1009.9871
       1.1331100       981.21776
       1.1334900       945.84404
       1.1338700       1001.7874
       1.1342400       993.68660
       1.1346200       1015.6274
       1.1350000       998.36055
       1.1353800       988.24693
       1.1357599       958.72050
       1.1361400       1024.1615
       1.1365100       1018.7690
       1.1368901       1013.3164
       1.1372700       1018.7392
       1.1376500       923.13167
       1.1380301       1028.9910
       1.1384100       959.66790
       1.1387900       1034.9508
       1.1391701       1000.2007
       1.1395500       941.07679
       1.1399300       1010.2060
       1.1403100       1020.9815
       1.1406900       960.22837
       1.1410700       1015.5239
       1.1414500       994.98634
       1.1418300       1025.4751
       1.1422100       1020.2103
       1.1425900       983.03023
       1.1429700       1019.6502
       1.1433500       1050.2036
       1.1437300       999.62982
       1.1441100       978.27837
       1.1445000       1031.9482
       1.1448801       1024.8167
       1.1452600       1032.2053
       1.1456400       1059.7798
       1.1460201       992.55859
       1.1464100       1047.6453
       1.1467900       1056.5210
       1.1471699       1051.0287
       1.1475500       1007.7355
       1.1479300       1058.5919
       1.1483200       1006.6267
       1.1487000       1034.7631
       1.1490800       1042.7474
       1.1494700       1058.3032
       1.1498500       1042.4872
       1.1502301       1069.7352
       1.1506100       1006.6683
       1.1510000       1075.9649
       1.1513799       1047.8294
       1.1517700       1063.8066
       1.1521500       1041.5763
       1.1525300       1053.1298
       1.1529200       1046.6607
       1.1533000       1048.0192
       1.1536900       1065.7051
       1.1540700       1081.9258
       1.1544600       1034.1191
       1.1548400       1089.3092
       1.1552300       1067.1479
       1.1556100       1053.3450
       1.1560000       1089.8761
       1.1563801       1068.7729
       1.1567700       1062.1505
       1.1571500       1089.7473
       1.1575400       1085.4568
       1.1579200       1046.4546
       1.1583101       1086.5869
       1.1587000       1070.7850
       1.1590800       1066.2587
       1.1594700       1042.0968
       1.1598600       1023.5882
       1.1602401       1075.3362
       1.1606300       1079.8455
       1.1610200       1006.8797
       1.1614000       1006.6989
       1.1617900       1063.3186
       1.1621799       1096.4352
       1.1625600       1103.3783
       1.1629500       1083.0511
       1.1633400       1071.9617
       1.1637300       1098.3969
       1.1641099       1036.6802
       1.1645000       1067.6561
       1.1648901       1111.5644
       1.1652800       1098.9529
       1.1656700       1087.6391
       1.1660600       1084.5760
       1.1664500       1096.0029
       1.1668299       1098.4591
       1.1672200       1066.3197
       1.1676100       1119.2658
       1.1680000       1115.6116
       1.1683900       1098.0422
       1.1687800       1097.8393
       1.1691700       1011.4540
       1.1695600       1087.7592
       1.1699500       1102.1525
       1.1703399       1102.9400
       1.1707300       1128.2949
       1.1711200       1105.8148
       1.1715100       1105.7721
       1.1719000       1114.7769
       1.1722900       1132.2994
       1.1726800       1094.2046
       1.1730700       1122.3652
       1.1734700       1132.4240
       1.1738600       1111.2491
       1.1742500       1107.8183
       1.1746401       1135.0585
       1.1750300       1118.7730
       1.1754200       1103.1646
       1.1758100       1094.6302
       1.1762100       1144.0182
       1.1766000       1134.2893
       1.1769900       1122.6786
       1.1773800       1106.0154
       1.1777800       1095.9805
       1.1781700       1118.6232
       1.1785600       1042.2968
       1.1789500       1143.3361
       1.1793500       1141.0391
       1.1797400       1132.9328
       1.1801300       1124.1998
       1.1805300       1147.4623
       1.1809200       1150.6650
       1.1813101       1102.7407
       1.1817100       1142.2301
       1.1821001       1149.5467
       1.1824900       1144.0150
       1.1828901       1103.5078
       1.1832800       991.79583
       1.1836801       1163.3950
       1.1840700       1135.9933
       1.1844701       1125.1628
       1.1848600       1165.9949
       1.1852601       1145.1897
       1.1856500       1160.2725
       1.1860501       1150.4301
       1.1864400       1148.1524
       1.1868401       1166.7053
       1.1872300       1168.5359
       1.1876301       1125.0241
       1.1880200       1172.6913
       1.1884201       1082.3263
       1.1888200       1052.9199
       1.1892101       1132.4601
       1.1896100       1134.9733
       1.1900100       1160.5273
       1.1904000       1175.2049
       1.1908000       1166.3169
       1.1912000       1164.4767
       1.1915900       1177.4009
       1.1919900       1190.2573
       1.1923900       1166.3464
       1.1927900       1164.8666
       1.1931800       1187.7291
       1.1935800       1190.6245
       1.1939800       1170.4860
       1.1943800       1176.5425
       1.1947700       1179.7003
       1.1951700       1149.6187
       1.1955700       1179.8180
       1.1959701       1147.2812
       1.1963700       1195.8865
       1.1967700       1189.7549
       1.1971700       1173.5054
       1.1975600       1015.6788
       1.1979600       1180.7845
       1.1983600       1191.2031
       1.1987600       1099.9297
       1.1991600       1183.0118
       1.1995600       1107.1295
       1.1999600       1199.8637
       1.2003599       1201.4062
       1.2007600       1144.6775
       1.2011600       1197.1254
       1.2015600       1201.0867
       1.2019600       1202.4897
       1.2023600       1194.8401
       1.2027600       1205.8439
       1.2031699       1191.4735
       1.2035700       1091.8118
       1.2039700       1193.3622
       1.2043700       1173.7788
       1.2047700       1193.5837
       1.2051700       1213.8366
       1.2055700       1203.3583
       1.2059799       1203.6290
       1.2063800       1210.7338
       1.2067800       1201.8067
       1.2071800       1206.3122
       1.2075800       1200.0908
       1.2079901       1216.5884
       1.2083900       1182.7603
       1.2087899       1045.9347
       1.2092000       1224.5976
       1.2096000       1214.8014
       1.2100000       1205.6111
       1.2104000       1216.4802
       1.2108099       1166.7824
       1.2112100       1207.9004
       1.2116200       1224.0461
       1.2120200       1217.9495
       1.2124200       1220.8447
       1.2128299       1228.6820
       1.2132300       1228.8965
       1.2136400       1218.9937
       1.2140400       1247.9823
       1.2144500       1234.9706
       1.2148499       1227.6708
       1.2152600       1246.6871
       1.2156600       1226.6671
       1.2160701       1245.6772
       1.2164700       1249.2310
       1.2168800       1227.6893
       1.2172800       1254.2669
       1.2176900       1240.0238
       1.2180901       1251.7225
       1.2185000       1238.4799
       1.2189100       1257.6263
       1.2193100       1220.2697
       1.2197200       1240.7026
       1.2201300       1221.4272
       1.2205300       1266.3503
       1.2209400       1238.5155
       1.2213500       1247.9367
       1.2217500       1225.5912
       1.2221600       1264.0169
       1.2225699       1255.4119
       1.2229800       1241.4571
       1.2233800       1247.2866
       1.2237900       1271.9516
       1.2242000       1256.2646
       1.2246100       1255.5908
       1.2250201       1269.0635
       1.2254200       1250.7458
       1.2258300       1266.4541
       1.2262400       1264.4034
       1.2266500       1274.9294
       1.2270600       1276.3307
       1.2274700       1201.1829
       1.2278800       1277.1734
       1.2282900       1277.1750
       1.2287000       1274.6748
       1.2291000       1270.0610
       1.2295099       1286.5331
       1.2299200       1273.5457
       1.2303300       1277.7148
       1.2307400       1287.6502
       1.2311500       1287.9763
       1.2315600       1266.0388
       1.2319800       1289.6445
       1.2323900       1269.4901
       1.2328000       1288.9980
       1.2332100       1279.3624
       1.2336200       1282.2870
       1.2340300       1262.2857
       1.2344400       1244.8482
       1.2348500       1283.8837
       1.2352700       1299.9485
       1.2356800       1266.0254
       1.2360899       1253.5960
       1.2365000       1258.3869
       1.2369100       1273.5979
       1.2373199       1287.7141
       1.2377400       1314.4272
       1.2381500       1306.9455
       1.2385600       1297.6922
       1.2389801       1310.1570
       1.2393900       1284.3993
       1.2398000       1267.0421
       1.2402101       1285.7898
       1.2406300       1296.3705
       1.2410400       1297.9900
       1.2414600       1323.8632
       1.2418700       1294.3993
       1.2422800       1294.2891
       1.2427000       1269.9797
       1.2431099       1307.5403
       1.2435300       1245.7937
       1.2439400       1315.4628
       1.2443500       1331.7042
       1.2447701       1320.6786
       1.2451900       1321.9898
       1.2456000       1328.5947
       1.2460099       1316.0810
       1.2464300       1329.6051
       1.2468500       1327.8980
       1.2472600       1306.8446
       1.2476799       1329.9481
       1.2480900       1333.9867
       1.2485100       1334.2258
       1.2489200       1337.5643
       1.2493401       1342.4990
       1.2497600       1323.6249
       1.2501700       1332.1086
       1.2505900       1332.8108
       1.2510099       1350.2212
       1.2514300       1293.9758
       1.2518400       1297.9279
       1.2522600       1306.1727
       1.2526799       1270.6887
       1.2530900       1319.6066
       1.2535100       1312.8285
       1.2539300       1342.5801
       1.2543499       1347.4972
       1.2547700       1347.4261
       1.2551800       1358.2193
       1.2556000       1354.4199
       1.2560199       1323.2390
       1.2564400       1340.0579
       1.2568600       1335.2212
       1.2572800       1344.2201
       1.2577000       1352.5991
       1.2581199       1357.8494
       1.2585400       1324.3847
       1.2589600       1375.0711
       1.2593700       1345.8619
       1.2597899       1372.1004
       1.2602201       1350.5517
       1.2606400       1371.4049
       1.2610500       1355.6754
       1.2614700       1348.1697
       1.2618901       1337.5340
       1.2623200       1370.8123
       1.2627400       1380.4370
       1.2631600       1367.8813
       1.2635800       1377.3538
       1.2640001       1343.5630
       1.2644200       1356.2429
       1.2648400       1376.8360
       1.2652600       1343.2640
       1.2656900       1388.2380
       1.2661099       1381.5253
       1.2665300       1393.0692
       1.2669500       1361.3599
       1.2673700       1370.1852
       1.2678000       1399.7069
       1.2682199       1335.2377
       1.2686400       1376.3811
       1.2690700       1393.6803
       1.2694900       1393.8196
       1.2699100       1375.7830
       1.2703300       1398.1516
       1.2707601       1386.4181
       1.2711800       1380.3255
       1.2716100       1390.4665
       1.2720300       1407.9006
       1.2724500       1413.2018
       1.2728800       1402.1643
       1.2733001       1406.4229
       1.2737300       1394.4573
       1.2741500       1383.6933
       1.2745800       1379.6488
       1.2750000       1408.1068
       1.2754300       1412.1670
       1.2758501       1421.1305
       1.2762800       1418.6615
       1.2767000       1419.1182
       1.2771300       1415.2743
       1.2775500       1414.9762
       1.2779800       1422.5289
       1.2783999       1415.0159
       1.2788301       1431.6121
       1.2792600       1410.1632
       1.2796800       1417.0180
       1.2801100       1420.5229
       1.2805400       1423.2593
       1.2809600       1378.0596
       1.2813900       1384.9193
       1.2818201       1370.2879
       1.2822500       1317.1710
       1.2826700       1320.4452
       1.2831000       1394.1287
       1.2835300       1395.8307
       1.2839500       1440.1709
       1.2843800       1404.9003
       1.2848099       1444.6567
       1.2852401       1404.1810
       1.2856700       1445.0121
       1.2861000       1448.2522
       1.2865300       1441.1115
       1.2869500       1455.5265
       1.2873800       1434.1348
       1.2878100       1442.6320
       1.2882400       1401.0095
       1.2886699       1444.4861
       1.2891001       1459.1401
       1.2895300       1455.2518
       1.2899600       1438.7642
       1.2903900       1363.5066
       1.2908200       1456.4137
       1.2912500       1410.4050
       1.2916800       1459.0059
       1.2921100       1459.5152
       1.2925400       1424.8523
       1.2929699       1456.7062
       1.2934000       1449.6603
       1.2938401       1410.3359
       1.2942700       1453.9963
       1.2947000       1467.9990
       1.2951300       1458.3235
       1.2955600       1460.8035
       1.2959900       1457.7381
       1.2964200       1473.2669
       1.2968600       1460.1766
       1.2972900       1451.7274
       1.2977200       1471.6170
       1.2981499       1425.5583
       1.2985899       1485.2985
       1.2990201       1468.3484
       1.2994500       1468.4998
       1.2998900       1490.4233
       1.3003200       1478.1676
       1.3007500       1474.3562
       1.3011900       1474.3520
       1.3016200       1473.9723
       1.3020500       1485.9807
       1.3024900       1489.0424
       1.3029200       1490.2587
       1.3033600       1465.0708
       1.3037900       1467.0720
       1.3042300       1467.1612
       1.3046600       1484.7442
       1.3050900       1490.9360
       1.3055300       1487.4278
       1.3059601       1506.6503
       1.3063999       1496.8082
       1.3068399       1478.2021
       1.3072701       1502.5339
       1.3077101       1502.0420
       1.3081400       1489.0928
       1.3085800       1514.7829
       1.3090200       1493.5257
       1.3094500       1521.9680
       1.3098900       1498.1797
       1.3103300       1484.1139
       1.3107600       1507.3901
       1.3112000       1516.7964
       1.3116400       1517.6660
       1.3120700       1495.4726
       1.3125100       1378.8224
       1.3129500       1501.6026
       1.3133900       1512.0485
       1.3138200       1484.9928
       1.3142600       1533.1374
       1.3147000       1517.0276
       1.3151400       1490.3133
       1.3155800       1385.9810
       1.3160200       1512.3108
       1.3164500       1534.8721
       1.3168900       1530.8954
       1.3173300       1534.7917
       1.3177700       1546.9262
       1.3182100       1492.4761
       1.3186500       1518.8174
       1.3190900       1546.9471
       1.3195300       1534.6937
       1.3199700       1532.3777
       1.3204100       1501.5849
       1.3208500       1550.2379
       1.3212900       1532.7249
       1.3217300       1511.0371
       1.3221700       1534.7566
       1.3226100       1534.8740
       1.3230500       1560.4308
       1.3234900       1553.9036
       1.3239300       1557.5825
       1.3243700       1564.3294
       1.3248200       1560.6811
       1.3252600       1539.1580
       1.3257000       1566.9832
       1.3261400       1556.3966
       1.3265800       1541.8256
       1.3270299       1542.5385
       1.3274699       1559.4263
       1.3279099       1566.4798
       1.3283499       1521.7521
       1.3288000       1565.7215
       1.3292400       1465.1363
       1.3296800       1501.4980
       1.3301200       1575.0934
       1.3305700       1551.6646
       1.3310100       1549.8502
       1.3314500       1570.2032
       1.3319000       1576.0588
       1.3323400       1453.9475
       1.3327900       1569.1328
       1.3332300       1569.7656
       1.3336800       1579.4513
       1.3341200       1592.8880
       1.3345701       1570.3876
       1.3350101       1578.0063
       1.3354501       1552.2379
       1.3358999       1591.2533
       1.3363500       1591.5368
       1.3367900       1601.5679
       1.3372400       1589.8519
       1.3376800       1590.7030
       1.3381300       1595.9177
       1.3385700       1584.7782
       1.3390200       1572.0933
       1.3394700       1517.3785
       1.3399100       1559.8744
       1.3403600       1606.3461
       1.3408099       1594.1321
       1.3412499       1593.9523
       1.3417000       1605.7605
       1.3421500       1564.8523
       1.3425900       1612.7983
       1.3430400       1601.0075
       1.3434900       1601.9789
       1.3439400       1623.4780
       1.3443900       1617.0093
       1.3448400       1620.4719
       1.3452801       1607.5691
       1.3457299       1606.0157
       1.3461800       1598.1128
       1.3466300       1620.8195
       1.3470800       1624.8330
       1.3475300       1629.9413
       1.3479800       1612.0220
       1.3484300       1630.2554
       1.3488700       1626.2458
       1.3493201       1628.3601
       1.3497699       1591.9914
       1.3502200       1591.3970
       1.3506700       1625.0427
       1.3511200       1644.0977
       1.3515700       1641.7937
       1.3520300       1639.0883
       1.3524801       1628.9239
       1.3529299       1635.3681
       1.3533800       1651.4266
       1.3538300       1648.3055
       1.3542800       1648.7343
       1.3547300       1648.9439
       1.3551800       1605.3020
       1.3556401       1613.0625
       1.3560899       1635.6417
       1.3565400       1645.0767
       1.3569900       1593.3568
       1.3574400       1646.3541
       1.3579000       1648.8724
       1.3583500       1656.7587
       1.3588001       1663.9223
       1.3592499       1616.8101
       1.3597100       1652.7145
       1.3601600       1663.7326
       1.3606100       1560.7889
       1.3610700       1667.5723
       1.3615201       1672.1790
       1.3619699       1672.0983
       1.3624300       1667.3516
       1.3628800       1595.6649
       1.3633400       1659.8391
       1.3637900       1675.1602
       1.3642499       1676.4225
       1.3647000       1616.8335
       1.3651600       1670.0105
       1.3656100       1663.5225
       1.3660700       1673.9901
       1.3665200       1687.6692
       1.3669800       1619.3033
       1.3674300       1688.1638
       1.3678900       1690.0128
       1.3683500       1676.2625
       1.3688000       1614.4290
       1.3692600       1681.8391
       1.3697100       1678.7021
       1.3701700       1657.1863
       1.3706300       1682.7041
       1.3710800       1680.5503
       1.3715400       1674.2698
       1.3720000       1705.0341
       1.3724600       1659.2582
       1.3729100       1671.7851
       1.3733701       1669.3917
       1.3738300       1652.5547
       1.3742900       1706.0485
       1.3747400       1678.1974
       1.3752000       1709.9222
       1.3756599       1692.9952
       1.3761200       1648.9044
       1.3765800       1703.5218
       1.3770400       1704.0974
       1.3775001       1713.0513
       1.3779500       1679.9207
       1.3784100       1723.6957
       1.3788700       1720.7672
       1.3793300       1699.4325
       1.3797899       1725.6533
       1.3802500       1713.5428
       1.3807100       1731.6098
       1.3811700       1724.2575
       1.3816299       1726.0022
       1.3820900       1693.7382
       1.3825600       1727.2734
       1.3830200       1695.0377
       1.3834800       1723.9928
       1.3839400       1735.7798
       1.3844000       1742.7683
       1.3848600       1735.6848
       1.3853199       1637.2668
       1.3857800       1741.0328
       1.3862500       1738.7544
       1.3867100       1653.5576
       1.3871700       1737.6539
       1.3876300       1737.0335
       1.3881000       1729.2929
       1.3885601       1755.4255
       1.3890200       1740.4211
       1.3894800       1755.5536
       1.3899500       1666.7710
       1.3904099       1757.4198
       1.3908700       1736.6367
       1.3913400       1734.1269
       1.3918000       1748.1949
       1.3922600       1744.7753
       1.3927300       1749.6896
       1.3931900       1756.6548
       1.3936599       1757.6874
       1.3941200       1751.7467
       1.3945900       1752.0978
       1.3950500       1753.1331
       1.3955200       1717.3938
       1.3959800       1773.7749
       1.3964500       1752.0484
       1.3969100       1749.1835
       1.3973800       1765.7323
       1.3978400       1760.5276
       1.3983099       1744.4424
       1.3987800       1759.1425
       1.3992400       1763.0887
       1.3997101       1726.9978
       1.4001800       1701.2734
       1.4006400       1736.5892
       1.4011101       1723.3057
       1.4015800       1782.2548
       1.4020400       1790.8689
       1.4025100       1782.1925
       1.4029800       1744.4847
       1.4034500       1780.2964
       1.4039100       1794.9438
       1.4043800       1735.0856
       1.4048500       1797.9164
       1.4053200       1798.1716
       1.4057900       1799.7820
       1.4062600       1764.2520
       1.4067200       1709.9735
       1.4071900       1726.1307
       1.4076600       1747.0357
       1.4081300       1784.8030
       1.4086000       1733.1311
       1.4090700       1783.0562
       1.4095401       1772.5644
       1.4100100       1764.0382
       1.4104800       1783.1236
       1.4109499       1777.8268
       1.4114200       1759.7517
       1.4118900       1741.9739
       1.4123600       1724.5215
       1.4128300       1694.1620
       1.4133000       1634.8640
       1.4137700       1789.8987
       1.4142500       1724.1304
       1.4147201       1799.0798
       1.4151900       1735.6190
       1.4156600       1816.9982
       1.4161299       1690.3819
       1.4166000       1787.6861
       1.4170800       1768.1391
       1.4175500       1804.9934
       1.4180200       1796.9157
       1.4184901       1699.3610
       1.4189700       1781.3742
       1.4194400       1719.1596
       1.4199100       1796.5399
       1.4203900       1713.6554
       1.4208601       1730.5617
       1.4213300       1811.7372
       1.4218100       1786.6434
       1.4222800       1770.5113
       1.4227600       1725.9626
       1.4232301       1772.8894
       1.4237000       1798.2231
       1.4241800       1632.5210
       1.4246500       1840.0151
       1.4251300       1759.1122
       1.4256001       1724.2041
       1.4260800       1761.8866
       1.4265500       1746.8916
       1.4270300       1837.2104
       1.4275100       1652.1979
       1.4279799       1847.6547
       1.4284600       1807.7018
       1.4289300       1742.2090
       1.4294100       1713.9377
       1.4298900       1783.8200
       1.4303600       1756.0311
       1.4308400       1859.5349
       1.4313200       1695.0847
       1.4317900       1810.9815
       1.4322701       1814.7251
       1.4327500       1814.5380
       1.4332300       1848.7983
       1.4337000       1830.5248
       1.4341800       1814.8613
       1.4346600       1822.6296
       1.4351400       1857.9116
       1.4356200       1760.2234
       1.4360900       1867.5807
       1.4365700       1848.8600
       1.4370500       1901.6090
       1.4375300       1776.7365
       1.4380100       1823.9878
       1.4384900       1890.7342
       1.4389700       1867.2177
       1.4394500       1848.8370
       1.4399300       1816.3574
       1.4404100       1679.0196
       1.4408900       1822.5206
       1.4413700       1914.8272
       1.4418499       1795.5018
       1.4423300       1834.0939
       1.4428101       1854.7761
       1.4432900       1831.4481
       1.4437701       1834.3658
       1.4442500       1776.3276
       1.4447401       1795.4015
       1.4452200       1918.0292
       1.4457000       1923.1397
       1.4461800       1793.7366
       1.4466600       1781.2314
       1.4471400       1877.0149
       1.4476300       1934.7236
       1.4481100       1852.9003
       1.4485900       1840.7531
       1.4490700       1837.1765
       1.4495600       1878.3665
       1.4500400       1880.5792
       1.4505301       1798.1019
       1.4510100       1871.4440
       1.4514900       1770.7859
       1.4519700       1938.6057
       1.4524601       1930.7200
       1.4529400       1806.2981
       1.4534301       1825.5155
       1.4539100       1873.3413
       1.4543999       1855.4795
       1.4548800       1788.1285
       1.4553699       1854.8898
       1.4558500       1801.7168
       1.4563400       1890.9539
       1.4568200       1841.3100
       1.4573100       1886.3703
       1.4577900       1864.8491
       1.4582800       1894.9304
       1.4587700       1921.4918
       1.4592500       1890.4222
       1.4597400       1834.9828
       1.4602300       1854.0581
       1.4607100       1789.4447
       1.4612000       1886.2842
       1.4616899       1916.9324
       1.4621700       1858.2457
       1.4626600       1917.0080
       1.4631500       1850.2647
       1.4636400       1895.2868
       1.4641200       1909.6020
       1.4646100       1910.8565
       1.4651000       1865.5539
       1.4655900       1733.1380
       1.4660800       1811.2138
       1.4665700       1955.9768
       1.4670500       1897.2137
       1.4675400       1940.2242
       1.4680300       1899.9745
       1.4685200       1828.0644
       1.4690100       1965.4624
       1.4694999       1885.7935
       1.4699900       1924.5651
       1.4704800       1840.4740
       1.4709700       1930.3263
       1.4714600       1854.9926
       1.4719501       1884.2798
       1.4724400       1857.6968
       1.4729300       1957.7408
       1.4734200       1935.2793
       1.4739100       1934.0817
       1.4744101       1851.3783
       1.4749000       1923.8604
       1.4753900       1863.6359
       1.4758800       1888.6635
       1.4763700       2005.0167
       1.4768699       1927.9996
       1.4773600       1860.9985
       1.4778500       1951.8009
       1.4783400       1903.8050
       1.4788400       1948.3069
       1.4793299       1975.1005
       1.4798200       1961.8069
       1.4803200       1965.0677
       1.4808100       1903.0777
       1.4813000       1899.6545
       1.4818000       1947.1210
       1.4822900       2005.0030
       1.4827800       1971.8018
       1.4832799       1908.6844
       1.4837700       1921.2961
       1.4842700       1937.7877
       1.4847600       1972.4231
       1.4852600       1929.9654
       1.4857500       2018.2850
       1.4862500       1969.3643
       1.4867400       1906.9163
       1.4872400       1930.7841
       1.4877400       1899.5819
       1.4882300       1522.2315
       1.4887300       1963.4459
       1.4892200       2006.6624
       1.4897200       2030.2860
       1.4902101       1933.8657
       1.4907100       1897.3506
       1.4912100       1958.7210
       1.4917099       1921.9557
       1.4922000       2040.8436
       1.4927000       2055.0839
       1.4931999       1993.0229
       1.4937000       2005.2824
       1.4941900       1965.1067
       1.4946899       2069.4370
       1.4951900       1940.8434
       1.4956900       2054.1007
       1.4961900       1837.6686
       1.4966900       2066.4376
       1.4971800       1991.6218
       1.4976799       2001.6127
       1.4981800       2016.6448
       1.4986800       1934.0191
       1.4991800       2014.0964
       1.4996800       2092.3285
       1.5001700       2026.6768
       1.5006800       2014.9262
       1.5011801       2034.8031
       1.5016800       1991.6055
       1.5021800       1963.8604
       1.5026799       1711.7049
       1.5031900       1897.7405
       1.5036900       2030.4278
       1.5041900       1884.9201
       1.5046901       1915.1945
       1.5051900       1809.4677
       1.5056900       1923.7520
       1.5061899       2052.5048
       1.5067000       2011.3910
       1.5072000       2067.5741
       1.5077000       2088.4067
       1.5082000       1938.1475
       1.5087100       2114.3269
       1.5092100       2083.4184
       1.5097100       2003.6373
       1.5102201       1955.9034
       1.5107200       2080.8583
       1.5112200       2064.2993
       1.5117300       2104.6545
       1.5122300       1976.1550
       1.5127300       1994.1241
       1.5132400       2076.2805
       1.5137399       2028.0543
       1.5142500       2014.8149
       1.5147500       2036.8793
       1.5152600       2112.5948
       1.5157599       2070.9905
       1.5162700       1999.4826
       1.5167700       2029.1276
       1.5172800       2061.4623
       1.5177799       2132.6157
       1.5182900       2031.9375
       1.5188000       2038.6602
       1.5193000       2073.3263
       1.5198100       2076.3672
       1.5203201       2029.7875
       1.5208200       2126.9120
       1.5213300       1998.6786
       1.5218400       2120.0412
       1.5223401       1927.4981
       1.5228500       2103.2154
       1.5233600       2024.7075
       1.5238600       2152.1398
       1.5243700       2078.8565
       1.5248801       2053.5044
       1.5253900       2093.3468
       1.5259000       2124.6992
       1.5264100       2077.0946
       1.5269200       2030.3152
       1.5274200       2151.9870
       1.5279300       2162.0266
       1.5284400       2095.4722
       1.5289500       2081.4530
       1.5294600       2135.5135
       1.5299700       1873.8255
       1.5304800       2149.5709
       1.5309900       2115.4242
       1.5315000       2172.7024
       1.5320100       2056.2608
       1.5325201       2162.4648
       1.5330300       2134.0412
       1.5335500       2169.8133
       1.5340600       2031.9460
       1.5345700       2080.2707
       1.5350800       2144.0106
       1.5355901       2123.2503
       1.5361000       2162.3715
       1.5366200       2128.6752
       1.5371300       2213.1566
       1.5376400       2164.7756
       1.5381500       2053.5831
       1.5386600       2151.0602
       1.5391800       2107.7752
       1.5396900       2100.7921
       1.5402000       2047.4013
       1.5407200       2169.3017
       1.5412300       2162.8694
       1.5417399       2197.5793
       1.5422601       2153.3206
       1.5427700       2098.0844
       1.5432900       2169.0063
       1.5438000       2133.6632
       1.5443200       2201.5577
       1.5448300       2185.6671
       1.5453500       2197.1876
       1.5458601       2207.5172
       1.5463800       2164.0287
       1.5468900       2175.9132
       1.5474100       2193.8874
       1.5479200       2163.7255
       1.5484400       2156.3645
       1.5489600       2201.3316
       1.5494699       2162.6163
       1.5499901       2125.7326
       1.5505100       2139.3888
       1.5510200       2206.7186
       1.5515400       2157.3033
       1.5520600       2224.8161
       1.5525700       2210.7780
       1.5530900       2219.3780
       1.5536100       2092.8526
       1.5541300       2144.5021
       1.5546401       2089.4130
       1.5551600       2241.4456
       1.5556800       2143.6325
       1.5562000       2037.1092
       1.5567200       2180.5682
       1.5572400       2198.5682
       1.5577600       2153.1091
       1.5582700       2188.2991
       1.5587900       2192.9398
       1.5593100       2149.4674
       1.5598300       2103.6908
       1.5603499       2251.3914
       1.5608701       2211.1668
       1.5614001       2218.3914
       1.5619200       2222.9455
       1.5624400       2106.8141
       1.5629600       2269.2698
       1.5634800       2088.0040
       1.5640000       2253.5356
       1.5645200       2227.4939
       1.5650400       2181.7179
       1.5655600       2214.0384
       1.5660900       2238.0205
       1.5666100       2152.4027
       1.5671300       2249.0466
       1.5676500       2138.3312
       1.5681700       2168.9540
       1.5687000       2197.3834
       1.5692199       2188.7666
       1.5697401       2092.2591
       1.5702699       2178.5035
       1.5707901       2236.3830
       1.5713100       2231.6441
       1.5718400       2200.4082
       1.5723600       2278.8964
       1.5728900       2144.0442
       1.5734100       2254.2860
       1.5739400       2288.2199
       1.5744600       2069.8402
       1.5749800       2227.6737
       1.5755100       2046.8924
       1.5760400       2281.0465
       1.5765600       2277.9141
       1.5770900       1845.0087
       1.5776100       2068.9729
       1.5781400       2208.0522
       1.5786600       2278.7982
       1.5791900       2168.9155
       1.5797100       2313.8471
       1.5802400       2209.8234
       1.5807700       2289.7521
       1.5813000       2268.2016
       1.5818200       2301.9884
       1.5823500       2084.1211
       1.5828800       2190.5031
       1.5834000       2311.0562
       1.5839300       2094.5941
       1.5844600       2307.4630
       1.5849900       2285.2108
       1.5855200       2267.8500
       1.5860400       2278.8805
       1.5865700       2188.9454
       1.5871000       2192.7241
       1.5876300       2260.7685
       1.5881600       2132.9190
       1.5886900       2133.2634
       1.5892200       1930.5600
       1.5897501       2060.1014
       1.5902801       2159.9753
       1.5908099       2082.9107
       1.5913399       2184.4589
       1.5918700       2251.0844
       1.5924000       2224.1265
       1.5929300       2356.6138
       1.5934600       2227.5087
       1.5939900       2340.0771
       1.5945300       2229.1428
       1.5950600       2362.3124
       1.5955900       2326.1005
       1.5961200       2190.9693
       1.5966500       2144.1425
       1.5971900       2260.6558
       1.5977200       2353.3261
       1.5982500       2207.9214
       1.5987800       2245.8161
       1.5993201       2297.1517
       1.5998501       2331.1994
       1.6003799       2337.2175
       1.6009200       2147.3762
       1.6014500       2246.2041
       1.6019800       2301.8630
       1.6025200       2293.6922
       1.6030500       2350.3534
       1.6035900       2367.9176
       1.6041200       2276.2233
       1.6046500       2178.6859
       1.6051900       2340.0434
       1.6057200       2338.8425
       1.6062599       2219.5173
       1.6068000       2331.9369
       1.6073300       2289.8884
       1.6078700       2282.2389
       1.6084000       2328.2962
       1.6089400       2350.5061
       1.6094700       2328.4296
       1.6100100       2184.7867
       1.6105500       2180.2377
       1.6110801       2279.8103
       1.6116199       2259.8905
       1.6121600       2277.2975
       1.6127000       2311.4835
       1.6132300       2305.5634
       1.6137700       2362.6997
       1.6143100       2273.3477
       1.6148500       2400.1406
       1.6153899       2275.8358
       1.6159199       2118.5583
       1.6164600       2383.9089
       1.6170000       2234.5921
       1.6175400       2400.9877
       1.6180800       2330.5440
       1.6186200       2302.2773
       1.6191601       2175.2006
       1.6197000       2267.9811
       1.6202400       2183.6081
       1.6207800       2235.0347
       1.6213200       2259.7460
       1.6218600       2259.9099
       1.6224000       2384.8622
       1.6229399       2269.5666
       1.6234800       2312.6115
       1.6240200       2310.5223
       1.6245600       2276.9154
       1.6251100       2362.0418
       1.6256500       2372.2690
       1.6261899       2352.0251
       1.6267300       2395.2107
       1.6272700       2389.9207
       1.6278200       2401.8322
       1.6283600       2407.9268
       1.6289001       2380.7474
       1.6294399       2398.6139
       1.6299900       2347.6908
       1.6305300       2390.1994
       1.6310700       2419.7119
       1.6316200       2337.3941
       1.6321599       2328.2707
       1.6327100       2352.8153
       1.6332500       2441.5632
       1.6338000       2273.0681
       1.6343400       2431.3467
       1.6348799       2403.8900
       1.6354300       2409.3610
       1.6359700       2381.4241
       1.6365200       2439.6163
       1.6370699       2157.0583
       1.6376100       2402.6820
       1.6381600       2391.0393
       1.6387000       2083.9413
       1.6392500       2349.2645
       1.6398000       2255.2925
       1.6403400       2149.3246
       1.6408900       2167.3508
       1.6414400       2189.8207
       1.6419801       2230.9931
       1.6425300       2358.6375
       1.6430800       2397.2824
       1.6436300       2380.2628
       1.6441700       2288.4228
       1.6447200       2235.2548
       1.6452700       2377.9915
       1.6458200       2281.8283
       1.6463701       2445.3653
       1.6469200       2373.1775
       1.6474600       2341.0233
       1.6480100       2356.8064
       1.6485600       2389.9318
       1.6491100       2292.2527
       1.6496600       2331.9064
       1.6502100       2426.3622
       1.6507601       2434.7980
       1.6513100       2394.2617
       1.6518600       2424.0849
       1.6524100       2350.7255
       1.6529599       2348.6390
       1.6535100       2439.8578
       1.6540700       2296.0003
       1.6546201       2349.7825
       1.6551700       2333.4944
       1.6557200       2400.7651
       1.6562700       2358.7280
       1.6568201       2353.0727
       1.6573800       2369.0592
       1.6579300       2431.6395
       1.6584800       2343.1860
       1.6590300       2361.6487
       1.6595900       2382.5662
       1.6601400       2407.4641
       1.6606899       2437.5891
       1.6612500       2393.5017
       1.6618000       2313.7440
       1.6623600       2311.2212
       1.6629100       2359.7625
       1.6634600       2283.1419
       1.6640199       2379.9672
       1.6645700       2356.5146
       1.6651300       2258.8943
       1.6656801       2296.9527
       1.6662400       2383.9479
       1.6667900       2294.7360
       1.6673501       2392.0439
       1.6679100       2352.5766
       1.6684600       2298.3269
       1.6690201       2384.8786
       1.6695700       2418.3706
       1.6701300       2433.3079
       1.6706899       2407.5648
       1.6712400       2356.8110
       1.6718000       2378.3390
       1.6723599       2225.9255
       1.6729200       2361.6074
       1.6734700       2391.5935
       1.6740299       2411.3014
       1.6745900       2418.2094
       1.6751500       2389.9853
       1.6757100       2172.6549
       1.6762600       2395.0149
       1.6768200       2292.3180
       1.6773800       2439.9338
       1.6779400       2401.9131
       1.6785001       2377.5630
       1.6790600       2375.4297
       1.6796200       2329.6261
       1.6801800       2310.9081
       1.6807400       2243.0887
       1.6813000       2195.5323
       1.6818600       2258.8369
       1.6824200       2249.2473
       1.6829799       2325.3959
       1.6835400       2346.7647
       1.6841000       2336.5378
       1.6846600       2345.8786
       1.6852300       2403.3198
       1.6857899       2399.4501
       1.6863500       2270.3795
       1.6869100       2338.0214
       1.6874700       2367.4563
       1.6880400       2347.5730
       1.6885999       2379.1344
       1.6891600       2377.2923
       1.6897300       2290.4555
       1.6902900       2394.9483
       1.6908500       2305.1985
       1.6914200       2411.6575
       1.6919800       2401.0593
       1.6925400       2432.4890
       1.6931100       2359.8982
       1.6936700       2401.3205
       1.6942400       2426.3006
       1.6948000       2426.0246
       1.6953700       2402.1971
       1.6959300       2410.9615
       1.6964999       2386.0129
       1.6970600       2400.5322
       1.6976300       2327.0851
       1.6981900       2380.6279
       1.6987600       2342.1425
       1.6993300       2379.9288
       1.6998900       2252.2393
       1.7004600       2359.9557
       1.7010300       2265.3113
       1.7015899       2272.1402
       1.7021600       2384.2523
       1.7027299       2353.5163
       1.7032900       2380.0813
       1.7038600       2375.4558
       1.7044300       2413.9437
       1.7050000       2392.5054
       1.7055700       2383.0586
       1.7061400       2409.0549
       1.7067000       2304.0013
       1.7072700       2325.5350
       1.7078400       2342.1434
       1.7084100       2392.1324
       1.7089800       2356.8921
       1.7095500       2373.6078
       1.7101200       2369.1538
       1.7106900       2347.9936
       1.7112600       2015.9154
       1.7118300       2371.5583
       1.7124000       2347.6114
       1.7129700       2396.2380
       1.7135400       2378.4113
       1.7141200       2371.7113
       1.7146900       2419.7682
       1.7152600       2419.1311
       1.7158300       2372.3625
       1.7164000       2312.3184
       1.7169700       2411.9674
       1.7175500       2388.0332
       1.7181200       2391.1049
       1.7186900       2380.3948
       1.7192600       2404.3429
       1.7198400       2366.3736
       1.7204100       2384.9670
       1.7209899       2292.1020
       1.7215600       2402.4675
       1.7221299       2400.2894
       1.7227100       2376.7502
       1.7232800       2227.7751
       1.7238600       2334.8175
       1.7244300       2374.6395
       1.7250000       2371.5270
       1.7255800       2364.0887
       1.7261600       2374.6875
       1.7267300       2379.1064
       1.7273099       2368.3536
       1.7278800       2339.8980
       1.7284600       2313.4836
       1.7290300       2350.7380
       1.7296100       2397.1006
       1.7301900       2365.3175
       1.7307600       2283.2184
       1.7313401       2347.4150
       1.7319200       2352.8973
       1.7324899       2382.3089
       1.7330700       2105.1709
       1.7336500       2326.8054
       1.7342300       2220.4269
       1.7348100       2347.8073
       1.7353801       2294.5629
       1.7359600       2252.7356
       1.7365400       2124.7160
       1.7371200       2211.2415
       1.7377000       2287.6243
       1.7382801       2300.0130
       1.7388600       2325.6375
       1.7394400       2297.0778
       1.7400200       2364.0921
       1.7406000       2327.6284
       1.7411799       2190.4374
       1.7417600       2363.1674
       1.7423400       2304.7253
       1.7429200       2331.9296
       1.7435000       2349.5281
       1.7440799       2363.6091
       1.7446600       2399.1093
       1.7452400       2325.2135
       1.7458200       2320.1042
       1.7464100       2356.7363
       1.7469900       2207.4245
       1.7475700       2349.1661
       1.7481600       2373.0881
       1.7487400       2394.1085
       1.7493200       2392.3778
       1.7499000       2337.7612
       1.7504900       2323.8144
       1.7510700       2317.1334
       1.7516500       2362.0014
       1.7522399       2367.4415
       1.7528200       2354.3937
       1.7534100       2368.3696
       1.7539901       2355.3483
       1.7545700       2345.4961
       1.7551600       2326.2686
       1.7557400       2330.6979
       1.7563300       2366.4119
       1.7569200       2339.2911
       1.7575001       2375.6408
       1.7580900       2374.7850
       1.7586700       2326.3249
       1.7592601       2369.3068
       1.7598500       2367.3888
       1.7604300       2332.5734
       1.7610199       2297.0337
       1.7616100       2332.8407
       1.7621900       2226.4901
       1.7627800       2302.6285
       1.7633700       2393.6100
       1.7639600       2322.8517
       1.7645400       2267.8581
       1.7651300       2351.2659
       1.7657200       2391.2691
       1.7663100       2330.8492
       1.7668999       2320.8245
       1.7674900       2346.3970
       1.7680800       2331.5096
       1.7686700       2250.8823
       1.7692600       2361.2088
       1.7698500       2312.1058
       1.7704300       2355.6810
       1.7710299       2298.7284
       1.7716200       2282.4028
       1.7722000       2321.7924
       1.7728000       2237.7389
       1.7733901       2319.8903
       1.7739800       2316.0888
       1.7745700       2343.9670
       1.7751600       2295.2294
       1.7757500       2303.6328
       1.7763500       2329.5600
       1.7769400       2294.3863
       1.7775300       2250.0775
       1.7781200       2333.4944
       1.7787200       2297.0693
       1.7793100       2310.1264
       1.7799000       2345.3249
       1.7805001       2328.3486
       1.7810900       2357.4491
       1.7816800       2302.3270
       1.7822700       2345.5407
       1.7828701       2287.6271
       1.7834600       2345.7488
       1.7840600       2288.3802
       1.7846500       2291.5337
       1.7852499       2274.3644
       1.7858400       2310.1140
       1.7864400       2297.3160
       1.7870300       2332.4061
       1.7876300       2317.1207
       1.7882299       2359.3489
       1.7888200       2353.0060
       1.7894200       2356.6247
       1.7900100       2359.9467
       1.7906100       2348.3969
       1.7912101       2346.2256
       1.7918000       2333.5645
       1.7924000       2343.7823
       1.7930000       2312.3924
       1.7936000       2242.6306
       1.7941999       2253.0903
       1.7947900       2336.4680
       1.7953900       2356.8814
       1.7959900       2350.5299
       1.7965900       2362.1276
       1.7971900       2300.5832
       1.7977901       2335.5383
       1.7983800       2323.6769
       1.7989800       2313.8233
       1.7995800       2335.5544
       1.8001800       2341.4233
       1.8007801       2278.0987
       1.8013800       2327.9647
       1.8019800       2307.5924
       1.8025900       2286.5325
       1.8031900       2227.8107
       1.8037900       2314.7143
       1.8043900       2312.3348
       1.8049901       2329.2704
       1.8055900       2249.5512
       1.8062000       2347.4442
       1.8068000       2287.5324
       1.8074000       2324.0572
       1.8080000       2314.0101
       1.8085999       2304.9870
       1.8092099       2331.6722
       1.8098100       2291.8405
       1.8104100       2239.1475
       1.8110200       2279.7113
       1.8116200       2290.8055
       1.8122200       2280.9370
       1.8128300       2336.9300
       1.8134300       2321.2080
       1.8140399       2325.2398
       1.8146400       2306.6243
       1.8152500       2324.2012
       1.8158500       2182.1685
       1.8164600       2257.5158
       1.8170600       2224.9916
       1.8176700       2059.1848
       1.8182700       2122.3759
       1.8188800       2235.7446
       1.8194900       2266.5543
       1.8200901       2299.0661
       1.8207000       2321.7823
       1.8213100       2343.9011
       1.8219100       2321.1115
       1.8225200       2286.0191
       1.8231300       2244.3253
       1.8237400       2297.2137
       1.8243400       2321.0655
       1.8249500       2345.1901
       1.8255600       2302.3833
       1.8261700       2335.5164
       1.8267800       2330.8948
       1.8273900       2332.8012
       1.8279999       2290.5196
       1.8286099       2279.6122
       1.8292100       2247.4870
       1.8298200       2294.8997
       1.8304300       2268.0074
       1.8310400       2300.8743
       1.8316500       2334.9731
       1.8322700       2266.7862
       1.8328800       2314.3147
       1.8334900       2346.8586
       1.8341000       2333.7721
       1.8347100       2271.5990
       1.8353200       2293.7135
       1.8359300       2284.2407
       1.8365400       2274.7362
       1.8371600       2265.3759
       1.8377700       2205.2061
       1.8383800       2285.0381
       1.8390000       2336.4050
       1.8396100       2266.4299
       1.8402200       2231.3261
       1.8408300       2331.1826
       1.8414500       2267.1688
       1.8420600       2183.9075
       1.8426700       2147.3989
       1.8432900       2269.4852
       1.8439000       2286.0710
       1.8445200       2296.0996
       1.8451300       2230.4747
       1.8457500       2328.1196
       1.8463600       2327.9434
       1.8469800       2131.0763
       1.8475900       2259.3068
       1.8482100       2288.9703
       1.8488300       2318.7406
       1.8494400       2286.6838
       1.8500600       2279.8131
       1.8506800       2322.1119
       1.8512900       2315.5016
       1.8519100       2279.9601
       1.8525300       2237.0292
       1.8531500       2161.1362
       1.8537600       2302.2774
       1.8543800       2315.3408
       1.8550000       2291.3990
       1.8556200       2220.6552
       1.8562400       2178.0225
       1.8568500       2313.3236
       1.8574700       2314.8085
       1.8580900       2261.5430
       1.8587101       2179.0230
       1.8593301       2318.7275
       1.8599499       2287.9356
       1.8605700       2299.5576
       1.8611900       2286.7189
       1.8618100       2270.0791
       1.8624300       2285.2809
       1.8630500       2241.0362
       1.8636700       2284.7590
       1.8643000       2257.0534
       1.8649200       2317.1927
       1.8655400       2279.0148
       1.8661600       2192.5226
       1.8667800       2257.5121
       1.8674099       2303.7966
       1.8680300       2262.8928
       1.8686500       2278.5904
       1.8692700       2303.0340
       1.8699000       2267.9125
       1.8705200       2288.4875
       1.8711400       2301.0906
       1.8717700       2243.4320
       1.8723900       2274.6610
       1.8730201       2149.8361
       1.8736399       2266.7086
       1.8742599       2205.5689
       1.8748900       2135.9293
       1.8755100       1848.2636
       1.8761400       2126.8771
       1.8767600       2202.1860
       1.8773900       2246.8943
       1.8780200       2156.8230
       1.8786401       2271.2298
       1.8792700       2264.2075
       1.8798900       2257.3543
       1.8805200       2286.0777
       1.8811500       2290.1296
       1.8817700       2295.4564
       1.8824000       2209.2161
       1.8830301       2293.5096
       1.8836600       2282.6857
       1.8842800       2286.0657
       1.8849100       2245.0225
       1.8855400       2263.5473
       1.8861700       2134.0725
       1.8868001       2254.0759
       1.8874300       2269.5820
       1.8880600       2193.4801
       1.8886900       2215.2918
       1.8893100       2168.6210
       1.8899400       2225.6156
       1.8905700       2143.5815
       1.8911999       2208.6316
       1.8918300       2216.5151
       1.8924700       2169.4511
       1.8931000       2203.6781
       1.8937300       2212.6284
       1.8943599       2243.8727
       1.8949900       2173.8395
       1.8956200       2258.3360
       1.8962600       2184.2512
       1.8968900       2201.9988
       1.8975199       2186.5883
       1.8981500       2261.2582
       1.8987800       2273.5060
       1.8994200       2172.4066
       1.9000500       2287.4076
       1.9006799       2245.5904
       1.9013200       2249.0342
       1.9019500       2281.0345
       1.9025900       2258.7280
       1.9032201       2266.6611
       1.9038500       2204.1577
       1.9044900       2246.8851
       1.9051200       2198.3692
       1.9057600       2249.6821
       1.9063900       2253.8763
       1.9070300       2280.3336
       1.9076700       2276.7263
       1.9083000       2234.9030
       1.9089400       2187.6161
       1.9095700       2281.3725
       1.9102100       2260.0331
       1.9108500       2247.4634
       1.9114799       2261.9143
       1.9121200       2165.6870
       1.9127600       2207.3988
       1.9133900       2260.1662
       1.9140300       2260.7687
       1.9146700       2229.0751
       1.9153100       2260.0639
       1.9159499       2223.5283
       1.9165900       2247.2171
       1.9172300       2266.7260
       1.9178600       2232.3703
       1.9184999       2268.3925
       1.9191400       2269.4551
       1.9197800       2113.0363
       1.9204201       2253.5015
       1.9210600       2230.9454
       1.9217000       2199.2697
       1.9223400       2221.0717
       1.9229800       2265.0355
       1.9236300       2255.5245
       1.9242700       2252.5224
       1.9249099       2240.7055
       1.9255500       2254.6442
       1.9261900       2162.6044
       1.9268301       2209.3562
       1.9274700       2224.9458
       1.9281200       2244.7030
       1.9287601       2163.9844
       1.9294000       2241.9090
       1.9300500       2248.0993
       1.9306901       2221.9121
       1.9313300       2078.9831
       1.9319800       2247.2611
       1.9326200       2239.2507
       1.9332700       2242.6325
       1.9339100       2175.1480
       1.9345599       2165.5438
       1.9352000       2225.4211
       1.9358500       2240.7694
       1.9364901       2265.4901
       1.9371400       2243.7001
       1.9377800       2261.4631
       1.9384300       2236.5512
       1.9390700       2179.0202
       1.9397200       2191.0265
       1.9403700       2245.4095
       1.9410100       2201.8404
       1.9416600       2204.7089
       1.9423100       2224.6903
       1.9429500       2158.3795
       1.9436001       2053.2301
       1.9442500       2135.4576
       1.9449000       1973.7774
       1.9455500       1931.8467
       1.9461900       2145.7257
       1.9468400       2175.3475
       1.9474900       2132.4053
       1.9481400       2206.0728
       1.9487900       2156.5343
       1.9494400       2200.5022
       1.9500901       2148.8841
       1.9507400       2203.8636
       1.9513900       1922.3976
       1.9520400       2229.8644
       1.9526900       2237.9766
       1.9533401       2241.1289
       1.9539900       2194.4701
       1.9546500       2173.4202
       1.9553000       2233.1113
       1.9559500       2237.1248
       1.9566000       2238.0034
       1.9572500       2228.5936
       1.9579099       2228.5724
       1.9585600       2180.0248
       1.9592100       2189.1233
       1.9598600       2177.2367
       1.9605200       2165.4221
       1.9611700       2223.3298
       1.9618200       2125.8542
       1.9624799       2232.6365
       1.9631300       2110.7433
       1.9637901       2117.0147
       1.9644400       2188.9042
       1.9651000       2231.2030
       1.9657500       2229.0509
       1.9664100       2222.0583
       1.9670600       2226.5717
       1.9677200       2212.8407
       1.9683700       2217.0307
       1.9690300       2202.0952
       1.9696900       2222.0673
       1.9703400       2215.5254
       1.9710000       2219.9733
       1.9716600       2199.1044
       1.9723099       2184.6982
       1.9729700       2033.9368
       1.9736300       2143.2327
       1.9742900       2169.2815
       1.9749399       2193.6073
       1.9756000       2193.3469
       1.9762599       2207.2867
       1.9769200       2195.8588
       1.9775800       2197.9127
       1.9782400       1935.3919
       1.9789000       2197.8253
       1.9795600       2127.0614
       1.9802200       2209.9679
       1.9808800       2183.9495
       1.9815400       2209.9201
       1.9822000       2161.1690
       1.9828600       2209.2134
       1.9835200       2204.8992
       1.9841800       2222.0784
       1.9848400       2202.2344
       1.9855000       2114.1794
       1.9861701       2069.9514
       1.9868300       2053.4054
       1.9874901       2188.4351
       1.9881500       2180.4099
       1.9888200       2168.2854
       1.9894800       2206.4605
       1.9901400       2200.4215
       1.9908100       2183.4883
       1.9914700       2191.1196
       1.9921300       2117.0436
       1.9928000       2171.7652
       1.9934601       2120.0611
       1.9941300       2107.3586
       1.9947900       2182.7779
       1.9954500       2148.0296
       1.9961200       2186.4154
       1.9967901       2104.5344
       1.9974500       2124.2141
       1.9981200       2101.4976
       1.9987800       2186.6255
       1.9994500       2183.2137
       2.0000899       2194.0542
       2.0007801       2182.4211
       2.0014501       2168.6882
       2.0021200       2201.0376
       2.0027800       2115.5721
       2.0034499       2150.2271
       2.0041201       2135.6623
       2.0047901       2187.2744
       2.0054600       2130.7512
       2.0061200       2104.1207
       2.0067899       2186.1663
       2.0074601       2132.6236
       2.0081301       2185.7683
       2.0088000       2161.0943
       2.0094700       2126.5396
       2.0101399       2169.3547
       2.0108099       2182.8909
       2.0114801       2165.8794
       2.0121500       2179.5827
       2.0128200       2181.2485
       2.0134900       2160.6432
       2.0141599       2120.8199
       2.0148301       2163.7377
       2.0155101       2159.6806
       2.0161800       2172.1582
       2.0168500       2170.4712
       2.0175200       2163.3684
       2.0181899       2153.7843
       2.0188701       2156.9415
       2.0195401       2141.3394
       2.0202100       2142.3310
       2.0208900       2100.5768
       2.0215600       2080.0696
       2.0222299       2146.5196
       2.0229101       2164.7233
       2.0235801       2107.6823
       2.0242600       2113.9970
       2.0249300       2150.3489
       2.0256100       2149.8200
       2.0262799       2162.1470
       2.0269599       2110.4490
       2.0276301       2145.1584
       2.0283101       2137.8957
       2.0289800       2098.7000
       2.0296600       2127.5661
       2.0303400       2079.9829
       2.0310199       2091.1985
       2.0316899       2165.3642
       2.0323701       2148.2417
       2.0330501       2148.6159
       2.0337200       2130.9602
       2.0344000       2132.5850
       2.0350800       2059.1879
       2.0357599       2097.2528
       2.0364399       2151.5998
       2.0371201       2124.8934
       2.0377901       2095.7572
       2.0384700       2031.0209
       2.0391500       2151.3257
       2.0398300       2151.6684
       2.0405099       2127.4495
       2.0411899       2119.6507
       2.0418701       2061.5224
       2.0425501       2138.8202
       2.0432401       2128.0469
       2.0439200       2162.9796
       2.0446000       2134.1074
       2.0452800       2124.5126
       2.0459599       2118.0797
       2.0466399       2151.4401
       2.0473299       2116.6650
       2.0480101       2125.9444
       2.0486901       2147.4434
       2.0493701       2148.5725
       2.0500600       2141.5035
       2.0507400       2140.0923
       2.0514200       2122.9650
       2.0521100       2131.1449
       2.0527899       2032.0640
       2.0534799       2136.4201
       2.0541601       2088.2064
       2.0548401       2118.2960
       2.0555301       2137.9950
       2.0562201       2106.8427
       2.0569000       2117.1388
       2.0575900       2119.9322
       2.0582700       2119.7123
       2.0589600       2066.6525
       2.0596399       2117.3756
       2.0603299       2067.4880
       2.0610199       2023.5118
       2.0617099       2130.5089
       2.0623901       2106.6357
       2.0630801       2130.5357
       2.0637701       1831.4440
       2.0644500       2127.5294
       2.0651400       2107.1112
       2.0658300       2138.4077
       2.0665200       2128.4694
       2.0672100       2076.8573
       2.0678999       2028.3285
       2.0685899       2085.3045
       2.0692799       2126.3712
       2.0699699       2074.3155
       2.0706601       2009.0918
       2.0713501       2097.7307
       2.0720401       2037.7424
       2.0727301       2104.0148
       2.0734200       2115.5446
       2.0741100       2049.1883
       2.0748000       2099.8847
       2.0754900       2104.3301
       2.0761800       2085.2442
       2.0768800       2057.2062
       2.0775700       2018.5477
       2.0782599       2110.6359
       2.0789599       2126.6060
       2.0796499       2092.7635
       2.0803399       2055.0080
       2.0810299       2084.4137
       2.0817299       2098.4496
       2.0824201       2087.1741
       2.0831201       2067.4491
       2.0838101       2011.1032
       2.0845101       2035.4775
       2.0852001       2060.0484
       2.0858901       2084.4902
       2.0865901       2102.1463
       2.0872900       2079.6745
       2.0879800       2079.5924
       2.0886800       2071.2869
       2.0893700       2092.0417
       2.0900700       2073.3280
       2.0907700       2085.1028
       2.0914600       2099.2909
       2.0921600       1993.4350
       2.0928600       2090.8003
       2.0935600       2101.4453
       2.0942500       2066.3246
       2.0949500       2109.0698
       2.0956500       2072.9995
       2.0963500       2073.4544
       2.0970500       2055.0946
       2.0977499       2047.9693
       2.0984499       2100.0136
       2.0991399       2054.3207
       2.0998399       2062.7555
       2.1005399       2110.5583
       2.1012399       2048.2831
       2.1019399       2065.4405
       2.1026499       2056.5138
       2.1033499       2099.0837
       2.1040499       2108.2264
       2.1047499       2082.0260
       2.1054499       2102.8906
       2.1061499       2083.6464
       2.1068499       2063.0052
       2.1075599       2033.8083
       2.1082599       2065.0367
       2.1089599       2064.2580
       2.1096699       2012.4258
       2.1103699       2079.5778
       2.1110699       2071.4875
       2.1117799       2062.9994
       2.1124799       2085.1409
       2.1131799       2038.9956
       2.1138899       2083.5159
       2.1145899       2047.1013
       2.1152999       2070.2628
       2.1159999       2071.9222
       2.1167099       1968.6083
       2.1174099       2070.7397
       2.1181200       2036.7563
       2.1188300       2076.1569
       2.1195300       2003.2559
       2.1202400       2018.5748
       2.1209400       2058.1380
       2.1216500       2033.6905
       2.1223600       2054.6579
       2.1230700       2017.3959
       2.1237800       1975.8776
       2.1244800       2031.5181
       2.1251900       2053.8258
       2.1259000       2073.8764
       2.1266100       2031.8359
       2.1273201       2068.2267
       2.1280301       2021.7244
       2.1287401       2053.5722
       2.1294401       2052.1204
       2.1301501       2059.3608
       2.1308601       2072.6028
       2.1315701       2065.3498
       2.1322899       2036.9623
       2.1329999       2065.5992
       2.1337099       2062.8834
       2.1344199       2035.2196
       2.1351299       2063.8005
       2.1358399       1966.2914
       2.1365499       2077.4533
       2.1372700       2066.8834
       2.1379800       2058.7574
       2.1386900       2052.3233
       2.1394000       2043.4779
       2.1401200       2045.3116
       2.1408300       2060.5177
       2.1415401       2051.4723
       2.1422601       2066.4787
       2.1429701       2064.2597
       2.1436901       2023.2949
       2.1443999       2033.1703
       2.1451199       2048.3630
       2.1458299       1999.6690
       2.1465399       2019.3465
       2.1472600       2050.7103
       2.1479800       2053.6691
       2.1486900       2041.5231
       2.1494100       2011.7111
       2.1501200       2048.0763
       2.1508400       2056.6531
       2.1515601       2048.4522
       2.1522801       2047.0757
       2.1529901       2011.1312
       2.1537099       2022.8016
       2.1544299       2009.5539
       2.1551499       2026.3005
       2.1558700       2040.9727
       2.1565800       2041.3863
       2.1573000       2020.3267
       2.1580200       2044.1997
       2.1587400       2037.1641
       2.1594601       2016.1692
       2.1601801       2010.1233
       2.1609001       2039.2503
       2.1616199       2001.1625
       2.1623399       2014.0737
       2.1630599       2016.9418
       2.1637800       2022.3036
       2.1645100       1982.8943
       2.1652300       1938.8240
       2.1659501       1812.0696
       2.1666701       1924.0686
       2.1673901       1949.7876
       2.1681199       1967.2548
       2.1688399       2007.0110
       2.1695600       1985.4294
       2.1702800       1995.3640
       2.1710100       2007.4162
       2.1717300       2008.2613
       2.1724601       2026.2736
       2.1731801       2019.5287
       2.1738999       2008.0038
       2.1746299       1998.3928
       2.1753500       1994.5544
       2.1760800       1987.4648
       2.1768000       1948.6065
       2.1775301       2014.2901
       2.1782601       1916.6946
       2.1789801       1955.2385
       2.1797099       1984.9399
       2.1804299       2029.1920
       2.1811600       2018.2895
       2.1818900       2010.4470
       2.1826100       1923.8484
       2.1833401       2015.0125
       2.1840701       2011.8663
       2.1847999       2020.7459
       2.1855299       1999.5611
       2.1862500       2012.1988
       2.1869800       2006.6132
       2.1877100       1980.8000
       2.1884401       1899.4071
       2.1891699       2015.9982
       2.1898999       1971.4417
       2.1906300       1954.8146
       2.1913600       1998.6999
       2.1920900       2017.6163
       2.1928201       2015.4961
       2.1935501       2004.3047
       2.1942799       1994.8838
       2.1950200       1977.5933
       2.1957500       1998.7737
       2.1964800       2009.6064
       2.1972101       2005.3087
       2.1979401       1992.6381
       2.1986799       1999.6138
       2.1994100       2014.1988
       2.2001400       1982.0001
       2.2008801       1968.9167
       2.2016101       1982.6080
       2.2023399       1989.1389
       2.2030799       1999.7507
       2.2038100       1989.2599
       2.2045500       1980.8264
       2.2052801       1991.7305
       2.2060201       1878.1315
       2.2067499       1879.2947
       2.2074900       1964.5468
       2.2082200       1982.4742
       2.2089601       1911.4394
       2.2097001       1986.0958
       2.2104299       1978.8386
       2.2111700       1979.0786
       2.2119100       1967.4509
       2.2126400       1990.9478
       2.2133801       1995.4396
       2.2141199       1990.1611
       2.2148600       1980.9032
       2.2156000       1986.8038
       2.2163301       1968.4976
       2.2170701       1976.6629
       2.2178099       1986.4825
       2.2185500       1981.0763
       2.2192900       1993.1184
       2.2200301       1978.3807
       2.2207699       1985.0965
       2.2215099       1950.3979
       2.2222500       1983.1081
       2.2229900       1983.5993
       2.2237301       1956.2811
       2.2244699       1974.8471
       2.2252200       1980.5256
       2.2259600       1947.4514
       2.2267001       1928.7510
       2.2274401       1975.5353
       2.2281799       1899.4847
       2.2289300       1978.1972
       2.2296700       1973.7468
       2.2304101       1945.5266
       2.2311599       1964.3274
       2.2319000       1962.3808
       2.2326500       1970.6721
       2.2333901       1977.4165
       2.2341299       1968.6085
       2.2348800       1957.9187
       2.2356200       1972.8851
       2.2363701       1971.5051
       2.2371099       1973.4834
       2.2378600       1954.3332
       2.2386000       1910.0991
       2.2393501       1942.6660
       2.2400999       1922.9164
       2.2408400       1968.8347
       2.2415900       1965.0170
       2.2423401       1921.4991
       2.2430899       1949.0657
       2.2438300       1962.5262
       2.2445800       1947.6812
       2.2453301       1954.1051
       2.2460799       1954.5536
       2.2468300       1957.8523
       2.2475801       1922.6390
       2.2483201       1930.4431
       2.2490699       1958.7835
       2.2498200       1949.7816
       2.2505701       1959.6586
       2.2513199       1937.5795
       2.2520700       1950.4709
       2.2528300       1950.9566
       2.2535801       1945.3523
       2.2543299       1858.3025
       2.2550800       1937.0046
       2.2558300       1935.7518
       2.2565801       1957.0403
       2.2573299       1924.9056
       2.2580900       1934.6424
       2.2588401       1959.3635
       2.2595899       1948.6169
       2.2603500       1948.8979
       2.2611001       1924.7921
       2.2618501       1921.4589
       2.2626100       1873.8619
       2.2633600       1890.6594
       2.2641201       1943.3000
       2.2648699       1940.2869
       2.2656200       1891.5666
       2.2663801       1933.4475
       2.2671399       1932.0255
       2.2678900       1935.1041
       2.2686501       1946.0213
       2.2693999       1935.0831
       2.2701600       1928.3244
       2.2709200       1939.3081
       2.2716701       1894.3031
       2.2724299       1936.9622
       2.2731900       1937.0514
       2.2739501       1933.8217
       2.2746999       1890.6690
       2.2754600       1915.0251
       2.2762201       1920.4569
       2.2769799       1921.6809
       2.2777400       1934.7239
       2.2785001       1920.7005
       2.2792599       1920.4713
       2.2800200       1901.8573
       2.2807801       1918.5257
       2.2815399       1757.1835
       2.2823000       1920.8417
       2.2830601       1886.7895
       2.2838199       1901.2447
       2.2845800       1925.8718
       2.2853401       1907.7866
       2.2860999       1907.4155
       2.2868700       1912.3414
       2.2876301       1909.0273
       2.2883899       1915.9320
       2.2891500       1912.2529
       2.2899201       1922.7564
       2.2906799       1926.4313
       2.2914400       1902.3455
       2.2922101       1913.0139
       2.2929699       1916.2192
       2.2937400       1425.0148
       2.2945001       1602.0084
       2.2952700       1687.9449
       2.2960300       1669.3800
       2.2967999       1721.7737
       2.2975600       1692.7639
       2.2983301       1802.9731
       2.2990899       1784.0159
       2.2998600       1807.3172
       2.3006301       1799.1139
       2.3013899       1823.4310
       2.3021600       1842.3809
       2.3029301       1838.5509
       2.3037000       1817.2883
       2.3044600       1826.1241
       2.3052299       1864.3227
       2.3060000       1814.5376
       2.3067701       1813.3955
       2.3075399       1840.4197
       2.3083100       1874.5542
       2.3090799       1812.7022
       2.3098500       1833.9824
       2.3106201       1879.1318
       2.3113899       1812.2604
       2.3121600       1836.6413
       2.3129301       1878.4360
       2.3137000       1838.2792
       2.3144701       1877.6316
       2.3152399       1772.8918
       2.3160100       1823.4206
       2.3167801       1839.3030
       2.3175600       1836.9251
       2.3183300       1859.1095
       2.3190999       1806.7433
       2.3198800       1877.6562
       2.3206501       1832.0711
       2.3214200       1882.1761
       2.3222001       1828.8016
       2.3229699       1310.6298
       2.3237400       1524.0651
       2.3245201       1628.4997
       2.3252900       1650.3261
       2.3260701       1687.4293
       2.3268499       1756.2832
       2.3276200       1723.4446
       2.3283999       1663.6307
       2.3291700       1747.5062
       2.3299501       1729.9044
       2.3307300       1781.5065
       2.3315001       1786.2080
       2.3322799       1792.4555
       2.3330600       1767.8771
       2.3338301       1722.5486
       2.3346100       1809.7216
       2.3353901       1739.9275
       2.3361700       1820.7631
       2.3369501       1769.5375
       2.3377299       1720.2747
       2.3385100       1773.5001
       2.3392799       1727.2698
       2.3400600       1796.9858
       2.3408401       1830.7398
       2.3416200       1733.1551
       2.3424101       1808.0748
       2.3431900       1814.6830
       2.3439701       1802.4453
       2.3447499       1799.3373
       2.3455300       1736.5866
       2.3463099       1840.2350
       2.3470900       1767.5974
       2.3478799       1772.1831
       2.3486600       1811.7905
       2.3494401       1757.3197
       2.3502300       1819.7322
       2.3510101       1789.2370
       2.3517900       1803.9622
       2.3525801       1333.8820
       2.3533599       1488.4531
       2.3541501       1519.1903
       2.3549299       1683.9219
       2.3557100       1611.5597
       2.3564999       1663.9790
       2.3572900       1675.4772
       2.3580699       1627.3754
       2.3588600       1738.1323
       2.3596399       1690.8703
       2.3604300       1702.4549
       2.3612199       1678.5643
       2.3620000       1801.6896
       2.3627901       1673.0971
       2.3635800       1731.6324
       2.3643701       1731.2029
       2.3651600       1661.7462
       2.3659401       1828.8587
       2.3667300       1686.6862
       2.3675201       1770.8316
       2.3683100       1781.9907
       2.3691001       1722.9235
       2.3698900       1713.8888
       2.3706801       1746.6661
       2.3714700       1749.3321
       2.3722601       1729.6576
       2.3730500       1725.3403
       2.3738401       1681.1162
       2.3746300       1659.3014
       2.3754301       1672.6793
       2.3762200       1761.6428
       2.3770101       1792.7019
       2.3778000       1756.7678
       2.3785901       1745.4976
       2.3793900       1722.5418
       2.3801799       1803.4715
       2.3809700       1688.3932
       2.3817699       1789.3139
       2.3825600       1727.1611
       2.3833599       1221.0886
       2.3841500       1470.9098
       2.3849399       1572.8985
       2.3857400       1550.4889
       2.3865299       1552.2588
       2.3873301       1645.7152
       2.3881199       1630.8609
       2.3889201       1672.3275
       2.3897200       1635.3761
       2.3905201       1659.5012
       2.3913100       1660.7063
       2.3921101       1690.6647
       2.3929100       1600.4988
       2.3936999       1723.3964
       2.3945000       1659.2918
       2.3952999       1682.7941
       2.3961000       1723.1956
       2.3968999       1689.1199
       2.3977001       1607.0115
       2.3984900       1767.7697
       2.3992901       1723.2328
       2.4000900       1650.9300
       2.4008901       1682.0074
       2.4016900       1742.7072
       2.4024899       1728.0191
       2.4033000       1732.2817
       2.4040999       1636.1971
       2.4049001       1762.8731
       2.4057000       1647.7872
       2.4065001       1799.9083
       2.4073000       1674.9080
       2.4081099       1682.2484
       2.4089100       1741.4222
       2.4097099       1738.9022
       2.4105201       1747.9288
       2.4113200       1667.3767
       2.4121201       1764.2506
       2.4129300       1743.3854
       2.4137299       1606.5260
       2.4145401       1262.8477
       2.4153399       1536.1967
       2.4161501       1434.7247
       2.4169500       1549.7861
       2.4177599       1657.2000
       2.4185600       1615.1206
       2.4193699       1586.3470
       2.4201701       1584.7997
       2.4209800       1672.6754
       2.4217899       1665.1900
       2.4226000       1628.6232
       2.4233999       1616.0851
       2.4242101       1689.3721
       2.4250200       1690.4763
       2.4258299       1603.0662
       2.4266400       1648.8390
       2.4274499       1681.8525
       2.4282501       1634.0682
       2.4290600       1671.1398
       2.4298699       1636.2481
       2.4306800       1729.0355
       2.4314899       1608.9535
       2.4323001       1711.2269
       2.4331200       1770.3339
       2.4339299       1587.6571
       2.4347401       1688.4069
       2.4355500       1633.6253
       2.4363599       1653.9614
       2.4371700       1716.7535
       2.4379799       1592.7117
       2.4388001       1711.9221
       2.4396100       1694.3461
       2.4404199       1691.8629
       2.4412401       1639.4057
       2.4420500       1702.6479
       2.4428699       1684.6146
       2.4436800       1760.5294
       2.4444900       1540.0990
       2.4453101       1759.2300
       2.4461200       1425.8425
       2.4469399       1477.8003
       2.4477501       1374.1473
       2.4485700       1625.1410
       2.4493899       1518.7109
       2.4502001       1598.3438
       2.4510200       1544.7869
       2.4518399       1521.1050
       2.4526501       1652.7772
       2.4534700       1585.9343
       2.4542899       1577.9074
       2.4551101       1652.2754
       2.4559300       1599.9897
       2.4567399       1540.9802
       2.4575601       1549.2649
       2.4583800       1670.4271
       2.4591999       1598.7700
       2.4600201       1669.6589
       2.4608400       1629.3902
       2.4616599       1698.4874
       2.4624801       1628.0885
       2.4633000       1646.4629
       2.4641199       1692.6430
       2.4649501       1621.9832
       2.4657700       1630.3792
       2.4665899       1714.1923
       2.4674101       1624.9748
       2.4682300       1631.8899
       2.4690599       1668.2802
       2.4698801       1576.8277
       2.4707000       1678.0341
       2.4715300       1623.6069
       2.4723499       1631.1734
       2.4731700       1608.8004
       2.4740000       1685.9341
       2.4748299       1641.5280
       2.4756501       1611.2139
       2.4764700       1572.6315
       2.4772999       1734.2846
       2.4781301       1673.6337
       2.4789500       1373.0259
       2.4797800       1481.9801
       2.4806001       1517.2145
       2.4814301       1526.6274
       2.4822600       1472.6942
       2.4830899       1508.6205
       2.4839101       1608.8330
       2.4847400       1637.7946
       2.4855700       1536.2844
       2.4863999       1499.0303
       2.4872301       1508.3932
       2.4880600       1581.4032
       2.4888899       1583.2241
       2.4897201       1596.3557
       2.4905500       1670.3890
       2.4913800       1532.3196
       2.4922099       1627.9196
       2.4930401       1535.9493
       2.4938700       1698.3458
       2.4947000       1557.8644
       2.4955299       1649.2731
       2.4963601       1556.5709
       2.4971900       1638.6054
       2.4980299       1591.5225
       2.4988599       1632.1261
       2.4996600       1578.0453
       2.5005200       1578.1150
       2.5013599       1597.9666
       2.5021901       1631.2033
       2.5030200       1604.0878
       2.5038600       1606.2426
       2.5046999       1597.9829
       2.5055301       1623.2986
       2.5063601       1686.6077
       2.5072000       1611.1932
       2.5080400       1565.7447
       2.5088699       1551.1665
       2.5097101       1649.3169
       2.5105500       1620.7372
       2.5113900       1498.2978
       2.5122199       1532.4551
       2.5130601       1560.3552
       2.5139000       1516.5793
       2.5147400       1484.0655
       2.5155699       1560.9596
       2.5164101       1548.4579
       2.5172501       1587.8513
       2.5180900       1503.9572
       2.5189199       1556.7650
       2.5197599       1564.7004
       2.5206101       1615.9672
       2.5214500       1579.3860
       2.5222900       1624.0366
       2.5231199       1575.0124
       2.5239699       1525.6901
       2.5248101       1618.5896
       2.5256500       1565.7755
       2.5264900       1605.0324
       2.5273399       1520.0302
       2.5281799       1569.9905
       2.5290201       1592.7294
       2.5298600       1631.6015
       2.5307100       1592.6935
       2.5315499       1580.7608
       2.5323901       1572.4671
       2.5332401       1580.2723
       2.5340800       1618.4059
       2.5349300       1656.1369
       2.5357699       1573.8141
       2.5366199       1626.8985
       2.5374601       1483.8220
       2.5383101       1610.0116
       2.5391600       1607.3305
       2.5400100       1598.8537
       2.5408499       1548.0668
       2.5416901       1489.4147
       2.5425401       1558.0908
       2.5433900       1671.0189
       2.5442400       1456.7861
       2.5450900       1632.0872
       2.5459299       1634.0186
       2.5467801       1409.2478
       2.5476301       1523.6833
       2.5484800       1535.2888
       2.5493300       1565.2463
       2.5501800       1582.3691
       2.5510299       1454.0564
       2.5518799       1498.1966
       2.5527301       1490.6793
       2.5535800       1571.6631
       2.5544300       1540.7450
       2.5552800       1494.6822
       2.5561399       1479.8528
       2.5569899       1502.5856
       2.5578401       1556.7409
       2.5586901       1554.7246
       2.5595400       1616.7169
       2.5604000       1493.1349
       2.5612600       1606.2971
       2.5621099       1503.1253
       2.5629599       1616.9462
       2.5638199       1564.4998
       2.5646701       1540.3755
       2.5655200       1587.5547
       2.5663800       1524.9524
       2.5672400       1532.1445
       2.5680900       1645.1021
       2.5689499       1530.6297
       2.5698099       1603.5574
       2.5706601       1508.2337
       2.5715201       1635.4065
       2.5723701       1582.9702
       2.5732300       1586.1780
       2.5740900       1565.2104
       2.5749500       1550.8807
       2.5758100       1588.2433
       2.5766599       1601.5975
       2.5775199       1547.7330
       2.5783899       1553.5707
       2.5792401       1642.6752
       2.5801001       1556.8719
       2.5809600       1630.4574
       2.5818300       1385.3015
       2.5826900       1562.3315
       2.5835500       1533.1025
       2.5844100       1517.7949
       2.5852599       1449.4918
       2.5861199       1465.4001
       2.5869901       1604.0587
       2.5878501       1580.9541
       2.5887101       1563.8253
       2.5895700       1558.5693
       2.5904400       1537.9419
       2.5913000       1558.8288
       2.5921700       1596.5984
       2.5930400       1553.2639
       2.5939000       1608.0834
       2.5947599       1503.5791
       2.5956199       1534.8879
       2.5964899       1569.9121
       2.5973599       1615.4269
       2.5982201       1569.9393
       2.5990901       1570.8121
       2.5999601       1493.8287
       2.6008201       1573.8026
       2.6016901       1598.4774
       2.6025600       1619.2443
       2.6034200       1544.9536
       2.6042900       1560.3950
       2.6051600       1536.6367
       2.6060300       1613.2891
       2.6069000       1556.0506
       2.6077700       1588.7513
       2.6086400       1532.3398
       2.6095099       1548.9993
       2.6103699       1581.9937
       2.6112399       1597.8124
       2.6121199       1493.0891
       2.6129899       1597.3574
       2.6138599       1603.1789
       2.6147299       1550.5499
       2.6156001       1614.9796
       2.6164701       1488.2611
       2.6173401       1528.8201
       2.6182201       1528.8952
       2.6190901       1523.5544
       2.6199601       1478.3043
       2.6208301       1525.1216
       2.6217101       1538.7623
       2.6225801       1490.7981
       2.6234601       1548.4983
       2.6243300       1518.6045
       2.6252100       1437.8317
       2.6260800       1451.2067
       2.6269600       1559.0653
       2.6278300       1529.3752
       2.6287100       1578.2955
       2.6295800       1510.6825
       2.6304600       1518.6283
       2.6313400       1557.5213
       2.6322200       1595.6314
       2.6330900       1530.9273
       2.6339700       1483.6525
       2.6348500       1583.3202
       2.6357300       1524.8313
       2.6366100       1575.9285
       2.6374800       1584.9311
       2.6383600       1547.0757
       2.6392400       1495.3401
       2.6401200       1366.3375
       2.6410100       1559.2926
       2.6418800       1561.5222
       2.6427600       1532.2970
       2.6436400       1546.2521
       2.6445200       1539.5310
       2.6454101       1546.1263
       2.6462901       1558.7003
       2.6471701       1524.9692
       2.6480501       1512.8405
       2.6489401       1580.9704
       2.6498201       1526.7706
       2.6507001       1561.8874
       2.6515901       1456.6614
       2.6524701       1522.8208
       2.6533501       1594.0353
       2.6542399       1472.3196
       2.6551199       1417.0808
       2.6560099       1496.9331
       2.6568899       1544.7809
       2.6577699       1519.9009
       2.6586599       1536.1431
       2.6595500       1511.6100
       2.6604400       1516.4463
       2.6613200       1517.7321
       2.6622100       1509.0501
       2.6631000       1519.8228
       2.6639900       1531.9566
       2.6648700       1425.0249
       2.6657600       1483.2500
       2.6666501       1513.8832
       2.6675401       1547.4548
       2.6684201       1569.9519
       2.6693201       1468.7645
       2.6702099       1531.8162
       2.6710999       1493.8802
       2.6719899       1560.1148
       2.6728799       1542.9885
       2.6737700       1540.9163
       2.6746600       1521.4164
       2.6755500       1449.8093
       2.6764400       1537.8426
       2.6773400       1543.8078
       2.6782300       1521.9106
       2.6791201       1551.5783
       2.6800201       1464.6689
       2.6809101       1569.1781
       2.6818099       1500.5776
       2.6826999       1519.3999
       2.6835899       1521.6845
       2.6844900       1559.5798
       2.6853800       1504.7378
       2.6862800       1568.8329
       2.6871700       1554.4791
       2.6880701       1443.0343
       2.6889601       1557.9002
       2.6898601       1547.7118
       2.6907599       1494.9529
       2.6916599       1528.7610
       2.6925499       1480.6315
       2.6934400       1524.3973
       2.6943400       1505.5365
       2.6952400       1499.7425
       2.6961401       1499.9017
       2.6970401       1472.3002
       2.6979401       1540.4848
       2.6988399       1524.5995
       2.6997399       1480.4347
       2.7006400       1509.1590
       2.7015400       1520.5926
       2.7024400       1487.1060
       2.7033401       1522.5394
       2.7042401       1530.0278
       2.7051401       1546.7405
       2.7060399       1447.1007
       2.7069399       1510.3199
       2.7078500       1463.1684
       2.7087600       1552.7368
       2.7096601       1527.8086
       2.7105601       1531.9237
       2.7114601       1483.0525
       2.7123699       1492.9124
       2.7132699       1516.6446
       2.7141700       1532.5374
       2.7150800       1516.5429
       2.7159801       1509.1069
       2.7168901       1484.3914
       2.7177899       1501.8341
       2.7186999       1523.4764
       2.7196100       1484.2216
       2.7205100       1507.6767
       2.7214200       1525.1022
       2.7223201       1484.1523
       2.7232399       1525.0645
       2.7241399       1518.6944
       2.7250500       1462.5107
       2.7259600       1534.6294
       2.7268701       1507.8625
       2.7277701       1485.8012
       2.7286899       1522.4825
       2.7295899       1483.6499
       2.7305000       1505.1708
       2.7314100       1473.6983
       2.7323201       1500.1388
       2.7332399       1481.5707
       2.7341499       1467.3340
       2.7350600       1519.0796
       2.7359700       1509.6665
       2.7368901       1481.9208
       2.7377999       1489.9998
       2.7387099       1471.0049
       2.7396200       1457.2113
       2.7405400       1499.9095
       2.7414501       1508.6532
       2.7423601       1530.9480
       2.7432699       1446.3555
       2.7441900       1475.1926
       2.7451000       1504.2271
       2.7460201       1513.5256
       2.7469399       1513.2162
       2.7478499       1474.6277
       2.7487600       1490.6390
       2.7496800       1469.0815
       2.7506001       1505.1604
       2.7515099       1495.3001
       2.7524300       1504.6563
       2.7533500       1521.3101
       2.7542701       1479.5704
       2.7551899       1465.5360
       2.7561100       1474.3363
       2.7570300       1474.6352
       2.7579401       1466.6935
       2.7588601       1477.2230
       2.7597799       1464.8430
       2.7607000       1509.6273
       2.7616200       1498.2437
       2.7625401       1460.3921
       2.7634599       1496.0768
       2.7643800       1512.2363
       2.7653100       1484.4241
       2.7662301       1475.2721
       2.7671499       1470.7293
       2.7680700       1487.8932
       2.7689900       1476.3827
       2.7699201       1491.8545
       2.7708399       1466.0619
       2.7717700       1469.2866
       2.7726901       1458.4497
       2.7736101       1473.4121
       2.7745299       1484.1476
       2.7754600       1446.4579
       2.7763801       1477.0925
       2.7773099       1456.9227
       2.7782400       1490.3599
       2.7791700       1487.7722
       2.7800901       1490.7676
       2.7810199       1476.2596
       2.7819400       1437.2945
       2.7828701       1432.8764
       2.7837999       1485.7896
       2.7847300       1486.8231
       2.7856600       1488.3357
       2.7865801       1468.7283
       2.7875099       1450.6460
       2.7884400       1469.5034
       2.7893701       1469.2418
       2.7902999       1477.3500
       2.7912300       1450.3439
       2.7921600       1474.0359
       2.7930901       1443.5312
       2.7940199       1456.4165
       2.7949600       1471.3371
       2.7958901       1479.7914
       2.7968199       1462.4749
       2.7977500       1474.1542
       2.7986801       1450.6916
       2.7996099       1480.2065
       2.8005500       1455.1333
       2.8014801       1451.3766
       2.8024099       1423.5171
       2.8033500       1470.2465
       2.8042901       1443.4934
       2.8052199       1461.0676
       2.8061500       1463.8294
       2.8070900       1441.5700
       2.8080201       1443.6153
       2.8089600       1477.1247
       2.8099000       1454.8792
       2.8108399       1446.8548
       2.8117700       1426.5365
       2.8127100       1462.2751
       2.8136499       1438.8225
       2.8145900       1448.1050
       2.8155200       1444.8520
       2.8164599       1438.3441
       2.8174000       1459.8341
       2.8183401       1443.2492
       2.8192699       1434.1374
       2.8202200       1439.8411
       2.8211601       1445.1566
       2.8220999       1431.4621
       2.8230400       1443.5071
       2.8239801       1451.1013
       2.8249199       1441.4246
       2.8258600       1430.3313
       2.8268099       1423.1486
       2.8277500       1445.4242
       2.8286901       1430.8303
       2.8296299       1441.2665
       2.8305700       1429.8091
       2.8315201       1453.1177
       2.8324599       1423.2301
       2.8334100       1431.0132
       2.8343501       1432.8794
       2.8352900       1452.2628
       2.8362401       1424.2792
       2.8371899       1441.1500
       2.8381300       1421.1102
       2.8390801       1449.0043
       2.8400199       1420.4639
       2.8409700       1397.8819
       2.8419199       1429.4883
       2.8428700       1428.3695
       2.8438201       1421.1958
       2.8447599       1410.1467
       2.8457100       1440.3860
       2.8466599       1414.8089
       2.8476100       1415.6688
       2.8485601       1441.8263
       2.8495100       1420.4616
       2.8504601       1402.8536
       2.8514099       1413.7318
       2.8523600       1418.6918
       2.8533101       1409.6101
       2.8542600       1370.7662
       2.8552101       1396.6515
       2.8561599       1406.9392
       2.8571200       1419.3427
       2.8580699       1421.0108
       2.8590200       1415.6941
       2.8599701       1381.3288
       2.8609200       1417.2977
       2.8618801       1398.7856
       2.8628299       1382.9549
       2.8637900       1414.9722
       2.8647399       1417.2470
       2.8656900       1400.5624
       2.8666501       1390.8429
       2.8676100       1406.4103
       2.8685601       1390.6915
       2.8695199       1383.8202
       2.8704700       1360.6713
       2.8714299       1383.1856
       2.8723900       1368.2508
       2.8733499       1356.6980
       2.8743100       1389.8425
       2.8752601       1374.7015
       2.8762200       1398.3965
       2.8771801       1397.4957
       2.8781400       1394.9965
       2.8791001       1381.5945
       2.8800600       1387.5918
       2.8810201       1392.2936
       2.8819699       1379.5353
       2.8829401       1390.9146
       2.8838999       1388.0407
       2.8848600       1368.6607
       2.8858199       1362.1885
       2.8867900       1377.9943
       2.8877499       1340.4765
       2.8887100       1366.4641
       2.8896699       1389.7691
       2.8906400       1365.9598
       2.8915999       1383.2657
       2.8925600       1373.5465
       2.8935201       1382.1947
       2.8944900       1363.2180
       2.8954599       1374.2524
       2.8964300       1357.5322
       2.8973899       1369.7805
       2.8983600       1357.1563
       2.8993199       1373.3658
       2.9002900       1373.7564
       2.9012499       1311.3779
       2.9022200       1359.7632
       2.9031899       1351.6390
       2.9041600       1352.7539
       2.9051199       1351.5647
       2.9060900       1344.7912
       2.9070599       1369.9494
       2.9080300       1346.2908
       2.9089999       1359.0064
       2.9099700       1344.6517
       2.9109399       1357.4072
       2.9119101       1356.7741
       2.9128799       1353.4267
       2.9138501       1341.8734
       2.9148200       1342.8073
       2.9157901       1352.7428
       2.9167700       1349.8554
       2.9177401       1349.9272
       2.9187100       1349.7311
       2.9196801       1347.8564
       2.9206600       1339.0597
       2.9216299       1345.2925
       2.9226100       1290.7877
       2.9235799       1313.7000
       2.9245601       1343.5292
       2.9255300       1337.7702
       2.9265101       1310.0450
       2.9274800       1343.6670
       2.9284599       1302.1909
       2.9294300       1332.5784
       2.9304099       1333.1122
       2.9313800       1333.9227
       2.9323599       1334.3920
       2.9333401       1321.4632
       2.9343200       1287.6235
       2.9352901       1319.7063
       2.9362700       1318.1080
       2.9372499       1326.1913
       2.9382300       1294.1089
       2.9392099       1321.3453
       2.9401901       1319.6187
       2.9411700       1317.6973
       2.9421501       1328.8522
       2.9431300       1298.2612
       2.9441099       1320.2275
       2.9450901       1296.9255
       2.9460700       1300.8291
       2.9470601       1290.5579
       2.9480400       1318.5078
       2.9490199       1315.4210
       2.9500101       1302.6519
       2.9509900       1307.9845
       2.9519701       1316.3835
       2.9529600       1314.8001
       2.9539399       1305.5537
       2.9549201       1301.7269
       2.9559100       1305.2569
       2.9568999       1298.6939
       2.9578800       1303.1292
       2.9588599       1309.7378
       2.9598501       1287.2761
       2.9608400       1282.9472
       2.9618199       1303.5346
       2.9628100       1304.5416
       2.9638000       1299.5036
       2.9647901       1288.0692
       2.9657800       1303.6040
       2.9667599       1305.8345
       2.9677501       1302.9491
       2.9687400       1294.9003
       2.9697399       1268.8828
       2.9707201       1276.6091
       2.9717100       1295.2338
       2.9727099       1287.6122
       2.9737000       1303.1003
       2.9746900       1299.5345
       2.9756701       1291.5063
       2.9766700       1291.0728
       2.9776599       1298.5487
       2.9786601       1285.3891
       2.9796500       1278.1357
       2.9806399       1294.0189
       2.9816401       1291.0370
       2.9826300       1292.4136
       2.9836199       1289.7795
       2.9846201       1293.9937
       2.9856100       1292.1900
       2.9866099       1285.9968
       2.9876101       1276.4907
       2.9886000       1277.7147
       2.9895899       1264.7264
       2.9905901       1288.0282
       2.9915900       1276.1972
       2.9925799       1285.8121
       2.9935801       1277.0320
       2.9945800       1284.0107
       2.9955800       1278.6892
       2.9965799       1260.2576
       2.9975801       1281.9369
       2.9985800       1275.2432
       2.9995799       1252.0247
       3.0005801       1231.9558
       3.0015700       1275.0654
       3.0025799       1277.3832
       3.0035801       1270.8876
       3.0045800       1268.7047
       3.0055799       1274.1225
       3.0065801       1263.1837
       3.0075800       1245.2146
       3.0085800       1245.6662
       3.0095799       1265.5800
       3.0105901       1262.9178
       3.0116000       1272.7422
       3.0125999       1268.9497
       3.0136001       1266.9075
       3.0146101       1260.1111
       3.0156100       1265.1589
       3.0166199       1258.3701
       3.0176201       1264.2762
       3.0186300       1265.5847
       3.0196300       1255.6960
       3.0206399       1241.0443
       3.0216401       1263.8418
       3.0226600       1258.7223
       3.0236700       1251.3314
       3.0246699       1248.9956
       3.0256801       1262.1626
       3.0266800       1238.9229
       3.0276999       1246.5561
       3.0287099       1256.1467
       3.0297101       1259.5439
       3.0307300       1254.7268
       3.0317400       1250.3660
       3.0327401       1232.6060
       3.0337601       1251.9723
       3.0347700       1251.5285
       3.0357800       1248.9943
       3.0367899       1246.5345
       3.0378101       1239.2755
       3.0388200       1219.8372
       3.0398300       1207.9880
       3.0408399       1242.9687
       3.0418601       1194.8878
       3.0428700       1239.2306
       3.0438800       1239.0650
       3.0448999       1234.2453
       3.0459099       1244.9781
       3.0469301       1245.9514
       3.0479500       1217.7075
       3.0489700       1218.1905
       3.0499799       1241.5259
       3.0509901       1245.1398
       3.0520101       1241.1292
       3.0530300       1239.1917
       3.0540500       1237.4660
       3.0550599       1218.7959
       3.0560801       1244.0031
       3.0571001       1237.8947
       3.0581200       1226.6447
       3.0591400       1238.6785
       3.0601599       1240.0675
       3.0611801       1239.4355
       3.0622001       1239.9910
       3.0632200       1238.2621
       3.0642400       1203.5725
       3.0652599       1219.2843
       3.0662899       1236.8857
       3.0673101       1236.4452
       3.0683300       1217.2825
       3.0693500       1235.2647
       3.0703700       1227.1058
       3.0713999       1231.9140
       3.0724299       1231.4014
       3.0734501       1229.7207
       3.0744700       1225.8533
       3.0755000       1235.0199
       3.0765200       1229.0727
       3.0775499       1231.9434
       3.0785799       1208.7020
       3.0796001       1229.8076
       3.0806201       1211.6815
       3.0816500       1217.6706
       3.0826800       1224.2485
       3.0837100       1210.3197
       3.0847299       1204.9723
       3.0857601       1201.3572
       3.0867901       1203.2432
       3.0878201       1227.5559
       3.0888500       1223.8031
       3.0898800       1222.6835
       3.0909100       1173.5218
       3.0919399       1220.3705
       3.0929699       1225.2177
       3.0940001       1219.1996
       3.0950301       1223.1913
       3.0960600       1212.3092
       3.0971000       1222.8859
       3.0981300       1196.6198
       3.0991600       1220.6160
       3.1001999       1220.2839
       3.1012299       1222.5629
       3.1022601       1218.0663
       3.1032901       1222.6237
       3.1043200       1214.8287
       3.1053600       1202.4479
       3.1064000       1210.3072
       3.1074300       1213.7299
       3.1084700       1219.2134
       3.1095099       1216.6325
       3.1105499       1218.4165
       3.1115799       1217.1931
       3.1126201       1214.9877
       3.1136501       1207.7778
       3.1146901       1176.4598
       3.1157300       1154.2890
       3.1167700       1185.3061
       3.1178100       1210.7058
       3.1188400       1209.8091
       3.1198900       1211.6331
       3.1209300       1210.4205
       3.1219599       1213.0648
       3.1230099       1208.7753
       3.1240499       1210.9735
       3.1250899       1206.8696
       3.1261301       1208.7388
       3.1271801       1201.6842
       3.1282201       1203.3642
       3.1292601       1209.1304
       3.1303000       1180.9684
       3.1313500       1183.5161
       3.1323900       1205.6423
       3.1334300       1206.4933
       3.1344800       1202.9516
       3.1355200       1176.2818
       3.1365700       1182.5718
       3.1376200       1203.3652
       3.1386600       1205.1115
       3.1396999       1198.3017
       3.1407499       1193.5865
       3.1417999       1201.9876
       3.1428499       1194.2428
       3.1438999       1204.2568
       3.1449399       1201.5620
       3.1459899       1199.4661
       3.1470399       1198.7899
       3.1480899       1178.2261
       3.1491399       1204.4809
       3.1501901       1203.3537
       3.1512401       1171.8628
       3.1522901       1189.0513
       3.1533401       1201.3920
       3.1543901       1202.0897
       3.1554401       1197.5444
       3.1564901       1186.1902
       3.1575501       1180.8399
       3.1586001       1198.6635
       3.1596501       1189.5208
       3.1607001       1197.0188
       3.1617601       1196.4943
       3.1628201       1183.4414
       3.1638701       1197.9319
       3.1649201       1188.3471
       3.1659701       1194.6213
       3.1670301       1193.1068
       3.1680901       1175.3833
       3.1691501       1193.5836
       3.1702001       1171.6539
       3.1712501       1189.3243
       3.1723101       1187.2987
       3.1733699       1189.6391
       3.1744299       1192.0052
       3.1754799       1193.5615
       3.1765499       1181.7611
       3.1776099       1191.4728
       3.1786599       1137.4288
       3.1797199       1183.7656
       3.1807799       1164.6243
       3.1818399       1180.1533
       3.1829100       1155.5914
       3.1839700       1165.1289
       3.1850200       1192.7043
       3.1860900       1191.0226
       3.1871600       1188.5542
       3.1882100       1182.5231
       3.1892700       1187.8329
       3.1903300       1188.2262
       3.1914001       1188.7909
       3.1924601       1156.3184
       3.1935301       1188.8244
       3.1945901       1188.0553
       3.1956601       1182.0674
       3.1967199       1185.8353
       3.1977899       1186.6921
       3.1988499       1181.6641
       3.1999199       1151.8474
       3.2009799       1162.7221
       3.2020600       1184.7972
       3.2031300       1179.6230
       3.2041900       1179.3455
       3.2052600       1172.3486
       3.2063200       1174.7571
       3.2074001       1180.2889
       3.2084701       1184.1641
       3.2095301       1180.9974
       3.2106099       1174.3662
       3.2116799       1177.0488
       3.2127399       1181.4071
       3.2138200       1181.8573
       3.2148900       1160.8373
       3.2159600       1178.0024
       3.2170300       1176.9410
       3.2181101       1178.0316
       3.2191801       1175.5001
       3.2202499       1178.5013
       3.2213199       1170.1895
       3.2224000       1177.3777
       3.2234700       1163.0102
       3.2245400       1174.5586
       3.2256200       1177.0340
       3.2266901       1169.1006
       3.2277701       1169.9681
       3.2288499       1147.0080
       3.2299299       1148.9700
       3.2309999       1167.7435
       3.2320700       1147.8266
       3.2331500       1146.8731
       3.2342300       1153.6277
       3.2353101       1174.1198
       3.2363901       1165.1770
       3.2374699       1172.9534
       3.2385499       1143.4028
       3.2396300       1166.4242
       3.2407100       1167.2164
       3.2417901       1161.2144
       3.2428701       1143.0707
       3.2439499       1170.0282
       3.2450299       1153.0204
       3.2461100       1153.1563
       3.2471900       1168.7173
       3.2482700       1164.9126
       3.2493501       1168.0416
       3.2504399       1165.1593
       3.2515299       1155.8466
       3.2526100       1166.5066
       3.2536900       1164.1996
       3.2547700       1164.0921
       3.2558601       1159.2855
       3.2569499       1165.6218
       3.2580400       1162.6168
       3.2591200       1165.0657
       3.2602000       1164.5997
       3.2612901       1164.6936
       3.2623799       1163.0903
       3.2634699       1159.7029
       3.2645500       1151.3057
       3.2656400       1161.8548
       3.2667301       1157.7935
       3.2678199       1161.2879
       3.2688999       1158.0020
       3.2700000       1160.5487
       3.2710900       1153.7903
       3.2721701       1157.5312
       3.2732699       1158.8380
       3.2743599       1159.4665
       3.2754500       1157.2482
       3.2765400       1146.4537
       3.2776301       1157.5461
       3.2787299       1156.0864
       3.2798200       1148.0757
       3.2809200       1129.7083
       3.2820101       1127.1133
       3.2831099       1151.8086
       3.2842000       1122.8183
       3.2852800       1154.4029
       3.2863901       1130.8421
       3.2874899       1122.4119
       3.2885799       1152.9263
       3.2896800       1152.5425
       3.2907701       1148.4799
       3.2918701       1136.0877
       3.2929599       1131.6912
       3.2940600       1129.2139
       3.2951601       1144.5641
       3.2962601       1129.1020
       3.2973599       1119.3043
       3.2984500       1137.9883
       3.2995601       1143.0152
       3.3006599       1142.7858
       3.3017499       1145.0563
       3.3028600       1147.0091
       3.3039601       1146.8875
       3.3050599       1133.2212
       3.3061600       1145.3343
       3.3072600       1142.9419
       3.3083601       1143.0598
       3.3094699       1133.6044
       3.3105800       1142.2891
       3.3116801       1140.0736
       3.3127799       1142.0924
       3.3138800       1140.7266
       3.3149900       1137.0187
       3.3160901       1128.9121
       3.3171999       1131.8229
       3.3183100       1124.8335
       3.3194101       1112.1936
       3.3205099       1038.3138
       3.3216200       1136.3101
       3.3227301       1137.6361
       3.3238399       1132.9802
       3.3249500       1122.6984
       3.3260500       1115.4613
       3.3271599       1134.8999
       3.3282700       1132.5672
       3.3293800       1118.2248
       3.3304901       1134.3422
       3.3316000       1133.0894
       3.3327100       1133.2684
       3.3338201       1132.8356
       3.3349299       1128.0857
       3.3360500       1130.4195
       3.3371601       1110.7773
       3.3382699       1094.6286
       3.3393800       1091.9745
       3.3404901       1110.2206
       3.3416100       1106.7131
       3.3427300       1114.1809
       3.3438399       1104.5878
       3.3449500       1128.8200
       3.3460701       1125.2753
       3.3471799       1128.8264
       3.3483000       1128.2405
       3.3494201       1123.7622
       3.3505299       1125.8143
       3.3516400       1122.7503
       3.3527601       1124.6002
       3.3538799       1111.3942
       3.3550000       1122.4510
       3.3561201       1118.8321
       3.3572400       1109.0822
       3.3583601       1123.3193
       3.3594699       1124.4767
       3.3606000       1120.9417
       3.3617201       1123.2494
       3.3628299       1122.4055
       3.3639600       1122.2227
       3.3650801       1112.1280
       3.3662000       1092.6098
       3.3673201       1120.1211
       3.3684399       1117.5428
       3.3695700       1114.3648
       3.3706901       1090.5023
       3.3718200       1117.5582
       3.3729401       1107.8196
       3.3740699       1111.1338
       3.3751900       1116.1788
       3.3763199       1106.8448
       3.3774400       1103.3378
       3.3785701       1106.9597
       3.3796899       1111.1210
       3.3808200       1113.2313
       3.3819399       1104.1023
       3.3830700       1100.6511
       3.3841901       1111.2003
       3.3853300       1106.2963
       3.3864601       1113.3757
       3.3875799       1112.6295
       3.3887100       1108.0888
       3.3898399       1108.1926
       3.3909700       1094.0379
       3.3921001       1084.4414
       3.3932300       1093.0437
       3.3943601       1089.6561
       3.3954999       1097.4811
       3.3966300       1024.2393
       3.3977599       1064.0434
       3.3988900       1055.8395
       3.4000299       1104.2187
       3.4011600       1066.5005
       3.4022901       1104.5051
       3.4034200       1103.9393
       3.4045601       1104.5470
       3.4057000       1104.7107
       3.4068301       1079.1965
       3.4079599       1092.8126
       3.4091001       1080.5559
       3.4102399       1094.5635
       3.4113801       1100.8759
       3.4125099       1101.0386
       3.4136500       1075.7925
       3.4147899       1071.9842
       3.4159300       1078.2031
       3.4170699       1090.4199
       3.4182100       1096.1582
       3.4193499       1093.1530
       3.4204900       1093.4832
       3.4216299       1094.5084
       3.4227700       1089.2640
       3.4239099       1087.7279
       3.4250500       1091.4032
       3.4261899       1095.6519
       3.4273300       1079.8925
       3.4284699       1089.7164
       3.4296200       1096.2215
       3.4307599       1088.9447
       3.4319000       1094.4083
       3.4330399       1093.4396
       3.4341900       1087.4959
       3.4353399       1088.3682
       3.4364800       1091.0663
       3.4376199       1088.4482
       3.4387701       1084.3244
       3.4399199       1078.5864
       3.4410701       1086.6320
       3.4422100       1078.7506
       3.4433601       1090.6466
       3.4445100       1086.1779
       3.4456601       1086.8362
       3.4468100       1082.3146
       3.4479499       1072.5675
       3.4491000       1071.3588
       3.4502499       1084.7236
       3.4514000       1086.9532
       3.4525499       1067.5979
       3.4537001       1069.5786
       3.4548600       1082.3670
       3.4560101       1058.2423
       3.4571500       1064.5335
       3.4583099       1051.3092
       3.4594600       1076.6363
       3.4606199       1062.7058
       3.4617701       1082.5021
       3.4629300       1076.8093
       3.4640801       1076.0837
       3.4652400       1066.1202
       3.4663899       1078.9092
       3.4675500       1076.4765
       3.4686999       1078.4580
       3.4698601       1073.9594
       3.4710100       1077.5583
       3.4721701       1074.7764
       3.4733300       1059.3419
       3.4744799       1069.6393
       3.4756401       1074.1626
       3.4768000       1072.4333
       3.4779601       1070.8124
       3.4791200       1074.2969
       3.4802799       1074.8231
       3.4814401       1073.4087
       3.4826000       1071.7469
       3.4837601       1071.2656
       3.4849200       1066.2907
       3.4860799       1062.7594
       3.4872401       1067.6823
       3.4884100       1062.1176
       3.4895699       1060.3810
       3.4907300       1070.0628
       3.4919000       1056.9752
       3.4930601       1056.0526
       3.4942300       1049.9441
       3.4953899       1057.8611
       3.4965501       1066.0655
       3.4977200       1064.8070
       3.4988899       1061.7914
       3.5000401       1062.1967
       3.5012200       1045.3379
       3.5023899       1061.5306
       3.5035501       1063.2175
       3.5047200       1057.3147
       3.5058999       1061.9913
       3.5070601       1061.3456
       3.5082200       1048.3105
       3.5093999       1031.6531
       3.5105700       1041.5921
       3.5117400       1054.3796
       3.5129099       1022.6763
       3.5140901       1050.7318
       3.5152500       1039.2240
       3.5164101       1051.3899
       3.5175900       1046.8108
       3.5187600       1040.8008
       3.5199299       1030.5110
       3.5211101       1037.7665
       3.5222900       1037.0561
       3.5234699       1040.1252
       3.5246401       1036.4085
       3.5258100       1052.3213
       3.5269799       1043.5832
       3.5281601       1048.6687
       3.5293400       1040.3182
       3.5305200       1045.0173
       3.5316899       1046.0740
       3.5328600       1043.3387
       3.5340500       1043.1029
       3.5352299       1045.5814
       3.5364001       1035.8754
       3.5375800       1032.4888
       3.5387599       1021.1579
       3.5399401       1033.6563
       3.5411201       1025.7715
       3.5423000       1042.7930
       3.5434799       1026.4791
       3.5446601       1033.7447
       3.5458400       1040.0693
       3.5470200       1042.9306
       3.5481999       1033.8578
       3.5493901       1035.6578
       3.5505800       1043.1329
       3.5517600       1042.7173
       3.5529499       1036.7372
       3.5541301       1040.4945
       3.5553100       1027.2530
       3.5565000       1038.3435
       3.5576799       1040.2724
       3.5588601       1039.3680
       3.5600500       1018.8211
       3.5612400       1038.7212
       3.5624299       1038.1271
       3.5636201       1037.7467
       3.5648000       1037.5311
       3.5659800       1034.0696
       3.5671699       1032.4047
       3.5683601       1036.1315
       3.5695500       1020.2984
       3.5707400       1004.3275
       3.5719299       1012.6974
       3.5731201       1008.8491
       3.5743101       1018.2510
       3.5755000       1020.2897
       3.5767000       1020.6532
       3.5778999       1024.6243
       3.5790901       1016.5762
       3.5802801       1012.0613
       3.5814700       1025.9794
       3.5826700       1029.6022
       3.5838699       1021.6078
       3.5850599       1015.5562
       3.5862501       1026.6844
       3.5874500       1009.6596
       3.5886500       1009.8348
       3.5898399       1006.3165
       3.5910299       1023.2272
       3.5922301       1003.2831
       3.5934300       1024.2662
       3.5946300       1023.3994
       3.5958300       1019.4953
       3.5970299       1006.3276
       3.5982299       1020.4044
       3.5994301       1019.7938
       3.6006200       1017.3510
       3.6018200       1018.0406
       3.6030200       1012.1244
       3.6042299       1019.6870
       3.6054299       1014.9682
       3.6066301       1017.7010
       3.6078300       1018.0952
       3.6090300       1015.0320
       3.6102300       1016.0182
       3.6114399       1016.0824
       3.6126499       1013.1280
       3.6138501       1012.6672
       3.6150401       1010.7104
       3.6162500       1013.1828
       3.6174600       1012.4339
       3.6186700       1012.0357
       3.6198699       1012.3646
       3.6210799       1010.5457
       3.6222899       1008.1656
       3.6235001       1009.5069
       3.6247001       1003.4541
       3.6259100       1003.0979
       3.6271200       1008.9366
       3.6283300       1005.3002
       3.6295300       1001.3939
       3.6307399       990.62266
       3.6319599       995.99827
       3.6331699       998.62916
       3.6343801       1006.0534
       3.6355901       982.93289
       3.6368101       982.16500
       3.6380200       990.54041
       3.6392300       1004.1896
       3.6404400       988.42216
       3.6416500       1000.9327
       3.6428699       1001.3280
       3.6440899       985.72627
       3.6452999       991.26040
       3.6465099       997.08087
       3.6477301       983.27412
       3.6489401       997.63146
       3.6501601       996.79811
       3.6513700       995.40919
       3.6525900       988.31767
       3.6538200       950.12663
       3.6550300       989.73240
       3.6562500       986.05514
       3.6574600       991.80664
       3.6586800       967.05050
       3.6599100       962.33331
       3.6611300       986.90979
       3.6623499       971.45149
       3.6635599       987.10990
       3.6647899       992.51645
       3.6660099       991.83510
       3.6672399       977.81275
       3.6684501       989.82741
       3.6696701       983.78039
       3.6709001       971.04380
       3.6721201       985.54660
       3.6733501       989.04459
       3.6745701       987.82710
       3.6758001       987.78473
       3.6770201       965.89132
       3.6782501       964.56833
       3.6794701       953.12899
       3.6807001       983.37767
       3.6819201       947.79179
       3.6831501       954.01420
       3.6843901       980.23265
       3.6856101       982.13974
       3.6868401       983.43318
       3.6880600       981.98806
       3.6893001       973.39800
       3.6905301       976.23958
       3.6917601       978.54511
       3.6929901       972.13169
       3.6942201       972.14902
       3.6954501       965.82905
       3.6966801       972.42362
       3.6979201       968.54188
       3.6991501       948.32808
       3.7003801       970.95416
       3.7016201       974.65568
       3.7028501       969.13866
       3.7040801       966.10768
       3.7053199       970.52267
       3.7065499       950.58354
       3.7077899       963.59745
       3.7090199       940.63637
       3.7102599       971.33169
       3.7114999       972.09515
       3.7127299       966.91211
       3.7139699       970.11016
       3.7152100       971.33511
       3.7164500       970.32442
       3.7176800       969.22379
       3.7189200       969.65667
       3.7201700       966.39145
       3.7214100       966.99927
       3.7226501       959.27350
       3.7238901       966.91514
       3.7251301       964.53925
       3.7263601       958.35502
       3.7276001       959.51490
       3.7288499       962.82925
       3.7300899       958.73185
       3.7313399       958.41037
       3.7325900       946.67459
       3.7338300       953.55270
       3.7350800       928.91777
       3.7363200       956.92910
       3.7375600       944.22671
       3.7388000       956.44280
       3.7400601       938.24539
       3.7413099       943.65194
       3.7425499       955.57929
       3.7437899       954.80183
       3.7450399       929.95916
       3.7462900       951.93001
       3.7475400       956.97675
       3.7487900       952.97179
       3.7500401       955.59927
       3.7512901       950.96675
       3.7525401       940.34428
       3.7537899       915.83505
       3.7550399       953.30719
       3.7563000       950.83994
       3.7575500       950.04570
       3.7588000       953.87037
       3.7600501       949.45188
       3.7613001       947.87218
       3.7625599       944.97944
       3.7638099       945.21750
       3.7650599       950.67722
       3.7663200       942.01580
       3.7675800       933.39635
       3.7688301       943.98306
       3.7700901       945.71234
       3.7713499       946.96816
       3.7726099       946.18301
       3.7738700       941.44079
       3.7751300       945.87584
       3.7763901       933.96731
       3.7776501       943.79779
       3.7788999       922.54858
       3.7801499       941.71080
       3.7814100       930.34182
       3.7826800       933.15612
       3.7839501       938.14378
       3.7852099       940.88670
       3.7864699       938.63567
       3.7877300       940.91928
       3.7889900       939.98478
       3.7902501       935.00109
       3.7915101       940.33899
       3.7927699       938.63179
       3.7940400       936.69826
       3.7953000       934.90484
       3.7965701       936.56275
       3.7978401       936.58522
       3.7990999       934.75837
       3.8003700       934.71802
       3.8016400       930.92382
       3.8029001       934.02562
       3.8041699       934.98950
       3.8054399       931.68052
       3.8067000       933.70943
       3.8079700       928.81351
       3.8092401       931.45498
       3.8105099       919.07617
       3.8117800       931.58792
       3.8130600       907.34389
       3.8143301       930.45199
       3.8155899       910.51472
       3.8168700       908.26672
       3.8181400       895.38793
       3.8194101       907.55053
       3.8206899       907.19812
       3.8219600       918.00958
       3.8232300       923.00144
       3.8245001       925.94946
       3.8257799       925.85041
       3.8270600       926.02409
       3.8283300       925.54153
       3.8296101       924.49345
       3.8308899       918.49005
       3.8321700       919.80122
       3.8334401       917.89895
       3.8347199       905.35672
       3.8360000       905.63171
       3.8372800       921.97793
       3.8385501       913.37325
       3.8398299       915.07199
       3.8411100       916.83322
       3.8424001       916.44994
       3.8436799       917.62342
       3.8449600       916.01099
       3.8462400       918.45017
       3.8475201       915.53729
       3.8488100       915.20781
       3.8500900       908.96293
       3.8513701       916.58133
       3.8526599       902.88987
       3.8539400       912.30426
       3.8552201       896.86952
       3.8565099       913.67918
       3.8578000       901.83277
       3.8590801       903.98304
       3.8603699       909.83033
       3.8616500       912.96937
       3.8629401       889.65618
       3.8642299       910.12950
       3.8655100       907.03773
       3.8668101       898.77132
       3.8680899       902.07137
       3.8693800       908.25078
       3.8706801       905.24018
       3.8719599       886.26618
       3.8732500       897.89747
       3.8745401       903.67447
       3.8758399       905.63077
       3.8771300       903.36482
       3.8784201       902.70888
       3.8797100       900.38796
       3.8810000       901.54441
       3.8822999       898.82046
       3.8835900       898.69513
       3.8848901       872.78603
       3.8861799       887.59881
       3.8874800       901.26096
       3.8887701       898.01339
       3.8900700       897.90999
       3.8913600       897.99449
       3.8926599       888.59449
       3.8939700       892.95879
       3.8952601       876.57564
       3.8965600       888.19527
       3.8978500       874.82490
       3.8991599       895.06389
       3.9004600       893.06491
       3.9017601       892.91214
       3.9030600       891.14344
       3.9043601       889.85979
       3.9056599       893.41733
       3.9069600       892.20178
       3.9082699       884.19482
       3.9095700       883.88360
       3.9108701       880.33819
       3.9121799       889.24887
       3.9134800       886.89537
       3.9147799       891.33252
       3.9160900       890.34966
       3.9173901       885.46315
       3.9187000       890.78014
       3.9200001       878.41291
       3.9213099       889.29451
       3.9226201       887.66108
       3.9239199       887.11065
       3.9252300       885.43353
       3.9265399       884.39120
       3.9278600       884.70661
       3.9291601       884.29627
       3.9304600       883.51672
       3.9317801       883.14953
       3.9330900       871.77122
       3.9344001       875.69448
       3.9357100       869.04781
       3.9370301       883.93344
       3.9383399       871.70172
       3.9396501       881.63568
       3.9409599       881.18732
       3.9422801       880.24536
       3.9435899       876.07457
       3.9449000       879.39522
       3.9462099       874.56461
       3.9475400       878.24623
       3.9488599       876.94065
       3.9501700       866.66189
       3.9514799       865.50738
       3.9528000       873.44648
       3.9541199       863.36021
       3.9554400       871.06965
       3.9567599       863.12542
       3.9580801       859.51144
       3.9593899       864.00107
       3.9607100       871.73235
       3.9620299       870.14760
       3.9633601       873.37332
       3.9646800       869.78880
       3.9660001       867.07799
       3.9673200       872.60761
       3.9686401       871.59397
       3.9699600       870.33037
       3.9712801       871.42355
       3.9726100       870.77469
       3.9739299       867.78959
       3.9752600       868.35347
       3.9765899       866.00922
       3.9779201       862.48457
       3.9792399       859.47933
       3.9805601       863.94291
       3.9818900       853.34664
       3.9832201       862.32216
       3.9845500       856.21318
       3.9858799       837.27362
       3.9872100       860.11552
       3.9885399       853.48301
       3.9898701       861.87054
       3.9912000       840.90953
       3.9925301       861.63715
       3.9938600       861.97907
       3.9951899       847.46911
       3.9965200       860.10977
       3.9978499       858.27491
       3.9991801       844.22637
       4.0005002       855.41824
       4.0018501       854.71255
       4.0031800       853.71508
       4.0045199       858.72078
       4.0058498       857.09194
       4.0071802       856.86399
       4.0085201       856.48273
       4.0098600       856.35484
       4.0112000       852.55186
       4.0125299       849.38864
       4.0138602       855.52156
       4.0152001       842.17327
       4.0165401       844.98174
       4.0178800       833.60662
       4.0192199       851.07680
       4.0205598       838.18526
       4.0219002       849.44594
       4.0232401       841.87419
       4.0245800       849.06849
       4.0259199       845.39029
       4.0272598       850.31972
       4.0286102       849.27747
       4.0299602       847.23090
       4.0313001       846.95763
       4.0326400       840.09592
       4.0339799       846.19845
       4.0353298       847.63020
       4.0366802       846.75021
       4.0380201       846.76443
       4.0393600       844.98873
       4.0407100       844.25910
       4.0420599       844.80331
       4.0434098       843.25867
       4.0447602       821.31348
       4.0461001       841.85211
       4.0474501       842.29075
       4.0488000       839.67727
       4.0501499       840.95586
       4.0514998       825.05909
       4.0528498       814.20634
       4.0542002       824.80991
       4.0555501       837.33893
       4.0569100       837.12653
       4.0582600       837.04575
       4.0596099       836.76439
       4.0609698       838.50160
       4.0623202       837.09255
       4.0636702       836.86764
       4.0650301       802.74461
       4.0663800       823.76074
       4.0677299       833.66236
       4.0690899       824.94309
       4.0704498       789.52864
       4.0718098       781.47456
       4.0731702       785.09623
       4.0745201       799.60347
       4.0758700       799.48522
       4.0772300       816.57134
       4.0785899       826.20575
       4.0799499       830.68021
       4.0813098       825.18317
       4.0826702       827.74363
       4.0840302       829.39174
       4.0853901       828.77538
       4.0867600       828.01301
       4.0881300       811.78769
       4.0894899       827.59591
       4.0908499       827.85947
       4.0922098       827.86592
       4.0935702       820.00356
       4.0949402       825.41912
       4.0963101       826.22604
       4.0976701       822.85602
       4.0990400       821.86695
       4.1004100       819.28947
       4.1017699       822.10788
       4.1031399       822.03986
       4.1045098       823.74527
       4.1058698       822.02874
       4.1072402       816.26876
       4.1086102       816.46460
       4.1099801       815.48688
       4.1113501       796.00605
       4.1127200       813.35301
       4.1140900       811.90873
       4.1154599       817.89285
       4.1168399       814.36882
       4.1182098       817.43937
       4.1195798       818.31377
       4.1209602       814.31129
       4.1223302       818.08317
       4.1237001       817.10444
       4.1250801       816.28524
       4.1264501       816.45169
       4.1278200       811.86807
       4.1292000       815.59821
       4.1305799       814.42651
       4.1319599       813.69609
       4.1333399       804.65690
       4.1347098       812.00094
       4.1360798       811.14932
       4.1374602       801.29178
       4.1388402       811.24712
       4.1402202       802.72035
       4.1416001       810.17152
       4.1429801       803.10962
       4.1443601       803.73819
       4.1457500       809.57685
       4.1471400       807.90401
       4.1485200       800.72759
       4.1499000       799.06392
       4.1512799       791.47748
       4.1526599       806.21352
       4.1540399       806.96080
       4.1554298       803.85434
       4.1568198       805.43583
       4.1581998       796.97475
       4.1595898       803.59895
       4.1609802       800.91495
       4.1623602       804.18973
       4.1637502       799.36720
       4.1651402       801.63728
       4.1665301       791.51705
       4.1679201       791.09629
       4.1693001       793.75906
       4.1706901       792.71471
       4.1720800       784.05935
       4.1734700       791.44311
       4.1748700       795.98654
       4.1762600       788.74816
       4.1776500       789.98298
       4.1790400       790.29280
       4.1804299       790.39464
       4.1818299       786.06906
       4.1832299       793.39965
       4.1846199       775.57611
       4.1860099       791.84093
       4.1874099       796.15711
       4.1888099       794.55618
       4.1901999       787.31127
       4.1915898       773.51804
       4.1929898       792.89010
       4.1943898       790.78065
       4.1957898       791.37563
       4.1971898       790.86033
       4.1985898       788.13545
       4.1999898       790.97571
       4.2013898       754.47244
       4.2027898       783.49321
       4.2041898       778.97179
       4.2055898       763.54801
       4.2069898       782.71444
       4.2083902       771.28178
       4.2097902       785.18323
       4.2112002       784.88290
       4.2126098       783.48054
       4.2140098       785.22498
       4.2154102       786.56608
       4.2168198       783.26293
       4.2182298       783.58122
       4.2196298       781.26845
       4.2210302       783.91715
       4.2224398       780.26997
       4.2238498       782.00548
       4.2252598       780.73333
       4.2266698       781.82970
       4.2280798       780.98227
       4.2294898       776.90384
       4.2308898       777.63092
       4.2322998       777.22501
       4.2337198       778.15088
       4.2351298       774.70039
       4.2365398       774.68166
       4.2379498       773.37103
       4.2393599       772.85045
       4.2407799       769.97131
       4.2421899       769.15950
       4.2435999       761.55400
       4.2450199       761.64225
       4.2464399       752.31711
       4.2478499       756.33816
       4.2492599       754.52227
       4.2506800       748.23782
       4.2521000       742.89005
       4.2535200       743.59768
       4.2549400       746.22974
       4.2563601       743.54101
       4.2577801       740.04714
       4.2591901       735.05147
       4.2606001       731.32554
       4.2620301       730.28049
       4.2634602       726.69442
       4.2648802       723.50835
       4.2663002       716.89511
       4.2677202       715.57609
       4.2691398       708.46576
       4.2705598       715.23798
       4.2719798       712.28289
       4.2734098       717.00318
       4.2748399       726.39440
       4.2762599       732.98742
       4.2776799       737.91459
       4.2791100       740.94098
       4.2805400       744.00219
       4.2819600       747.33194
       4.2833900       746.77956
       4.2848201       755.98652
       4.2862501       758.53866
       4.2876801       757.86150
       4.2891002       760.83859
       4.2905302       760.74748
       4.2919598       757.48179
       4.2933898       759.32723
       4.2948298       649.71588
       4.2962599       641.18180
       4.2976899       677.20095
       4.2991199       705.10592
       4.3005500       691.55962
       4.3019900       706.49562
       4.3034201       713.12199
       4.3048501       718.37810
       4.3062901       714.08261
       4.3077302       718.21624
       4.3091698       720.62641
       4.3105998       718.67758
       4.3120298       710.44966
       4.3134699       715.09034
       4.3149099       747.13190
       4.3163500       723.97754
       4.3177900       714.97971
       4.3192301       715.15028
       4.3206701       748.00241
       4.3221102       708.26968
       4.3235502       714.11153
       4.3249898       752.99201
       4.3264298       711.01961
       4.3278699       749.40019
       4.3293099       712.76110
       4.3307600       716.67813
       4.3322101       734.52623
       4.3336501       710.04492
       4.3350902       744.73797
       4.3365302       710.00363
       4.3379798       747.83775
       4.3394299       704.65057
       4.3408699       742.92037
       4.3423200       706.48699
       4.3437700       745.93167
       4.3452201       699.11854
       4.3466702       743.04585
       4.3481102       693.70188
       4.3495598       741.68850
       4.3510098       585.72528
       4.3524599       673.45908
       4.3539200       643.62218
       4.3553700       679.92047
       4.3568201       673.69348
       4.3582702       717.42992
       4.3597202       695.03373
       4.3611798       689.82357
       4.3626299       700.08476
       4.3640800       649.93663
       4.3655400       701.75060
       4.3670001       660.78694
       4.3684502       700.83694
       4.3699002       708.17305
       4.3713598       692.99394
       4.3728199       699.81039
       4.3742800       666.01942
       4.3757401       693.96785
       4.3772001       723.14878
       4.3786602       658.14073
       4.3801198       708.46996
       4.3815799       675.87454
       4.3830400       698.84978
       4.3845000       728.43373
       4.3859601       657.88090
       4.3874202       720.16717
       4.3888798       702.93730
       4.3903399       652.19937
       4.3917999       711.41230
       4.3932700       677.42081
       4.3947401       681.29143
       4.3962002       678.76316
       4.3976598       705.77850
       4.3991299       649.67786
       4.4006000       709.66365
       4.4020600       639.52291
       4.4035301       701.59068
       4.4050002       679.36724
       4.4064698       662.57678
       4.4079399       560.12875
       4.4094100       654.48305
       4.4108801       607.55097
       4.4123502       631.46354
       4.4138198       671.54911
       4.4152899       632.05075
       4.4167600       664.41087
       4.4182301       640.19859
       4.4197102       677.59613
       4.4211798       623.34579
       4.4226499       660.71199
       4.4241300       680.27639
       4.4256001       605.27774
       4.4270701       697.28049
       4.4285498       654.70120
       4.4300299       633.79523
       4.4315100       681.94970
       4.4329901       659.58865
       4.4344602       637.71580
       4.4359298       680.39783
       4.4374099       668.44172
       4.4388900       683.12318
       4.4403701       612.32608
       4.4418502       684.59124
       4.4433298       669.42924
       4.4448099       622.66140
       4.4462900       680.57851
       4.4477801       683.68489
       4.4492698       616.32847
       4.4507499       658.02465
       4.4522300       651.69853
       4.4537101       661.62549
       4.4552002       620.44966
       4.4566898       680.76587
       4.4581699       627.90608
       4.4596500       687.03765
       4.4611402       624.47709
       4.4626298       654.57767
       4.4641099       670.94161
       4.4656000       576.98171
       4.4670901       576.87602
       4.4685798       646.83286
       4.4700699       615.60241
       4.4715600       587.86471
       4.4730501       660.13745
       4.4745402       625.27418
       4.4760399       631.32585
       4.4775300       578.90707
       4.4790201       670.70465
       4.4805102       616.84478
       4.4819999       629.67836
       4.4835000       631.51291
       4.4850001       610.15431
       4.4864898       663.67540
       4.4879799       687.26661
       4.4894800       566.60060
       4.4909801       646.67282
       4.4924798       634.49692
       4.4939699       664.48815
       4.4954600       581.38485
       4.4969602       649.23222
       4.4984598       647.85310
       4.4999399       657.22287
       4.5014601       610.91360
       4.5029702       666.70668
       4.5044699       631.87384
       4.5059600       600.63819
       4.5074701       635.99103
       4.5089798       620.68375
       4.5104799       628.43696
       4.5119801       656.41712
       4.5134802       595.58448
       4.5149899       644.81467
       4.5164900       636.20595
       4.5180001       636.74414
       4.5195098       619.18821
       4.5210099       637.22706
       4.5225201       614.03227
       4.5240302       608.77095
       4.5255399       555.07497
       4.5270400       568.46555
       4.5285501       596.07086
       4.5300598       634.91811
       4.5315700       590.53284
       4.5330701       591.26881
       4.5345898       608.41414
       4.5361099       627.49563
       4.5376201       648.10138
       4.5391302       568.16853
       4.5406399       647.83744
       4.5421500       591.50081
       4.5436702       631.53549
       4.5451798       588.22229
       4.5467000       614.47064
       4.5482202       632.66152
       4.5497298       614.81548
       4.5512400       598.70879
       4.5527601       600.23656
       4.5542798       613.22310
       4.5558000       669.97897
       4.5573201       594.61143
       4.5588398       595.99346
       4.5603600       636.16755
       4.5618701       605.35907
       4.5633898       617.90215
       4.5649199       617.87490
       4.5664401       604.58861
       4.5679598       608.68356
       4.5694900       599.16426
       4.5710101       601.60701
       4.5725298       612.41311
       4.5740600       623.84763
       4.5755901       585.48823
       4.5771098       641.99929
       4.5786300       616.81714
       4.5801601       567.31314
       4.5816898       609.36076
       4.5832200       631.20702
       4.5847502       563.41869
       4.5862799       584.68027
       4.5878100       575.17165
       4.5893402       536.71375
       4.5908699       609.15719
       4.5924001       627.02741
       4.5939298       575.78867
       4.5954599       550.63191
       4.5969901       615.81213
       4.5985198       625.41851
       4.6000500       567.27601
       4.6015801       581.51522
       4.6031098       609.23905
       4.6046500       592.58535
       4.6061902       648.93683
       4.6077199       590.34229
       4.6092501       537.89925
       4.6107898       643.00092
       4.6123300       589.16072
       4.6138601       604.29466
       4.6153998       582.30076
       4.6169400       577.38319
       4.6184702       621.21545
       4.6200099       577.71909
       4.6215601       596.46763
       4.6230998       618.53445
       4.6246400       585.65329
       4.6261802       536.98399
       4.6277199       643.00636
       4.6292601       618.17092
       4.6308198       557.10124
       4.6323600       628.38332
       4.6339002       577.02956
       4.6354399       625.24945
       4.6369801       550.59483
       4.6385298       630.09449
       4.6400800       577.63380
       4.6416302       616.66659
       4.6431699       556.36118
       4.6447201       609.08943
       4.6462698       600.23932
       4.6478200       573.08326
       4.6493702       556.44554
       4.6509099       602.61050
       4.6524601       560.78391
       4.6540098       582.18006
       4.6555600       601.54392
       4.6571202       586.26086
       4.6586699       600.66478
       4.6602201       522.69946
       4.6617799       609.30447
       4.6633301       608.64593
       4.6648798       590.79002
       4.6664400       549.65586
       4.6680102       553.45907
       4.6695600       625.88704
       4.6711102       599.00235
       4.6726699       586.74969
       4.6742201       578.21697
       4.6757798       607.15556
       4.6773400       595.38009
       4.6788998       568.27512
       4.6804600       560.91055
       4.6820202       611.36009
       4.6835799       587.13305
       4.6851401       563.34475
       4.6867099       622.62738
       4.6882701       587.02428
       4.6898298       589.78929
       4.6914001       556.59337
       4.6929598       602.16199
       4.6945200       612.37739
       4.6960902       581.37264
       4.6976500       607.33558
       4.6992102       538.58974
       4.7007799       592.84801
       4.7023501       596.31774
       4.7039199       575.45764
       4.7054801       617.64194
       4.7070599       565.32943
       4.7086301       548.35017
       4.7101998       611.25887
       4.7117600       547.76611
       4.7133298       553.37235
       4.7149100       583.12766
       4.7164798       592.44382
       4.7180500       526.40129
       4.7196102       565.36710
       4.7211900       596.25885
       4.7227602       610.52406
       4.7243400       581.23682
       4.7259102       555.41382
       4.7274899       591.23935
       4.7290602       567.28756
       4.7306399       614.28852
       4.7322202       572.06531
       4.7338099       531.16664
       4.7353802       575.91112
       4.7369599       618.80147
       4.7385302       561.22799
       4.7401099       563.34491
       4.7416902       553.83800
       4.7432799       621.68760
       4.7448602       548.22399
       4.7464299       591.20642
       4.7480202       593.28230
       4.7495999       565.81312
       4.7511802       564.03770
       4.7527599       590.97548
       4.7543502       582.92113
       4.7559400       575.60702
       4.7575202       575.48131
       4.7591100       564.11435
       4.7607002       594.02002
       4.7622800       577.58070
       4.7638698       568.06396
       4.7654500       562.61826
       4.7670498       557.04336
       4.7686400       601.32724
       4.7702298       562.44688
       4.7718201       591.37155
       4.7734098       554.51703
       4.7749901       569.06143
       4.7765899       564.29422
       4.7781801       561.20256
       4.7797699       545.14039
       4.7813601       562.25784
       4.7829599       571.72614
       4.7845602       595.88586
       4.7861500       519.86467
       4.7877498       564.30331
       4.7893500       590.89980
       4.7909498       598.85060
       4.7925401       532.17130
       4.7941399       552.35187
       4.7957401       543.32970
       4.7973399       573.86281
       4.7989302       614.42562
       4.8005300       539.66394
       4.8021302       540.48936
       4.8037300       569.85505
       4.8053298       547.38465
       4.8069201       563.11175
       4.8085299       586.64558
       4.8101401       554.33569
       4.8117399       584.75910
       4.8133502       531.35902
       4.8149500       572.78822
       4.8165498       565.40908
       4.8181601       589.69203
       4.8197699       552.01368
       4.8213701       592.36739
       4.8229799       541.58841
       4.8245802       531.99991
       4.8261900       614.57206
       4.8277998       530.15230
       4.8294101       615.36183
       4.8310199       556.56099
       4.8326302       572.53100
       4.8342500       521.42020
       4.8358598       594.68159
       4.8374701       554.98972
       4.8390899       585.57861
       4.8406901       555.72049
       4.8422999       594.45014
       4.8439202       507.51187
       4.8455300       571.42492
       4.8471398       564.46141
       4.8487601       532.77845
       4.8503799       575.22409
       4.8520002       594.96369
       4.8536201       539.01372
       4.8552399       549.92124
       4.8568602       534.95057
       4.8584800       583.56101
       4.8600998       565.22910
       4.8617201       578.14777
       4.8633399       512.58610
       4.8649602       519.30837
       4.8665800       584.85527
       4.8681998       569.22127
       4.8698201       560.03409
       4.8714399       550.67160
       4.8730602       556.30773
       4.8746800       552.45301
       4.8763099       516.42647
       4.8779402       562.93442
       4.8795600       575.36753
       4.8811998       550.02014
       4.8828301       556.49836
       4.8844500       550.54803
       4.8860798       560.91005
       4.8877101       546.31947
       4.8893299       546.01654
       4.8909602       549.82266
       4.8925900       578.60662
       4.8942199       563.25430
       4.8958502       555.89401
       4.8974800       529.02009
       4.8991199       550.81442
       4.9007502       563.35187
       4.9023900       584.52174
       4.9040198       570.25688
       4.9056501       521.93701
       4.9072900       552.24061
       4.9089298       516.48665
       4.9105601       567.62314
       4.9122000       563.39132
       4.9138398       546.71900
       4.9154701       506.72754
       4.9171000       558.17202
       4.9187498       518.49508
       4.9203901       529.89978
       4.9220300       570.73482
       4.9236798       574.44026
       4.9253201       527.84074
       4.9269600       514.25455
       4.9285998       531.50941
       4.9302402       581.37684
       4.9318900       540.56610
       4.9335299       563.93531
       4.9351702       539.96237
       4.9368100       534.93696
       4.9384599       506.53706
       4.9401102       576.89079
       4.9417601       544.71100
       4.9434099       517.40276
       4.9450498       565.42152
       4.9466901       542.99264
       4.9483500       493.16751
       4.9499998       579.05000
       4.9516401       552.28108
       4.9533000       547.29972
       4.9549499       512.19213
       4.9566002       557.85249
       4.9582601       525.31422
       4.9599099       525.45330
       4.9615698       557.88588
       4.9632201       541.62670
       4.9648700       577.42673
       4.9665298       535.18279
       4.9681802       523.37988
       4.9698300       536.10808
       4.9714999       546.60786
       4.9731498       555.04399
       4.9748101       544.18214
       4.9764700       572.95918
       4.9781299       500.41845
       4.9797802       511.31757
       4.9814401       559.41824
       4.9831100       521.64927
       4.9847698       556.82909
       4.9864302       541.64761
       4.9880800       559.36797
       4.9897499       496.71731
       4.9914098       501.27426
       4.9930801       536.40518
       4.9947400       536.41952
       4.9964099       564.19490
       4.9980698       559.77567
       4.9997201       499.74350
       5.0014000       509.42059
       5.0030799       528.63770
       5.0047402       568.86112
       5.0064001       530.36407
       5.0080700       523.79364
       5.0097499       517.65465
       5.0114298       552.28555
       5.0130901       512.80927
       5.0147500       514.65163
       5.0164299       548.52463
       5.0180998       505.42535
       5.0197701       550.29306
       5.0214500       513.55908
       5.0231199       534.33424
       5.0247998       526.44059
       5.0264702       562.06849
       5.0281501       504.37894
       5.0298200       521.79244
       5.0314999       535.20235
       5.0331702       512.95795
       5.0348501       549.96132
       5.0365200       546.80378
       5.0382099       553.90840
       5.0398998       510.61001
       5.0415702       542.80761
       5.0432501       487.77243
       5.0449200       563.71875
       5.0466099       511.79380
       5.0482998       555.79407
       5.0499701       552.97041
       5.0516601       537.90352
       5.0533500       497.35824
       5.0550299       496.74783
       5.0567098       541.53527
       5.0584002       511.27368
       5.0600901       532.01243
       5.0617700       542.97966
       5.0634599       545.39687
       5.0651498       517.41150
       5.0668402       468.84666
       5.0685201       549.34476
       5.0702100       537.20945
       5.0719099       527.77100
       5.0735998       542.40609
       5.0752902       510.10339
       5.0769901       507.68789
       5.0786700       514.07297
       5.0803599       532.99100
       5.0820599       523.97300
       5.0837498       493.89019
       5.0854402       554.37425
       5.0871401       521.55730
       5.0888400       499.13421
       5.0905399       548.46726
       5.0922399       486.86149
       5.0939398       514.54772
       5.0956202       519.81103
       5.0973101       509.43462
       5.0990100       532.37682
       5.1007099       520.10195
       5.1024098       525.17054
       5.1041098       524.24969
       5.1058202       487.16839
       5.1075401       518.94382
       5.1092401       502.11562
       5.1109400       542.17387
       5.1126399       504.06205
       5.1143398       531.08026
       5.1160402       529.19879
       5.1177502       507.50083
       5.1194601       490.27146
       5.1211600       504.93478
       5.1228600       523.19726
       5.1245799       513.72946
       5.1262898       526.85995
       5.1279898       533.14544
       5.1297002       528.93457
       5.1314101       497.70370
       5.1331201       470.91725
       5.1348400       514.84082
       5.1365499       498.85624
       5.1382599       546.64102
       5.1399798       536.00036
       5.1416898       530.53834
       5.1434002       488.95077
       5.1451101       471.55833
       5.1468201       496.42056
       5.1485500       533.23124
       5.1502600       518.31770
       5.1519699       513.53688
       5.1536999       521.43820
       5.1554098       510.17822
       5.1571202       535.29937
       5.1588502       484.28031
       5.1605701       503.87849
       5.1623001       501.42225
       5.1640100       542.48353
       5.1657200       508.42541
       5.1674500       497.85729
       5.1691699       516.26302
       5.1708999       521.75983
       5.1726298       504.28794
       5.1743498       510.14261
       5.1760702       526.61684
       5.1778002       508.96170
       5.1795201       501.61218
       5.1812501       522.59123
       5.1829700       509.71039
       5.1847000       504.64533
       5.1864200       499.02813
       5.1881599       479.69078
       5.1898999       518.25558
       5.1916299       506.32587
       5.1933498       521.90801
       5.1950798       508.71385
       5.1968098       542.96823
       5.1985502       487.12706
       5.2002702       470.85909
       5.2020102       520.74440
       5.2037501       476.54370
       5.2054701       507.29943
       5.2072101       517.98779
       5.2089500       521.68006
       5.2106900       507.46748
       5.2124200       464.89601
       5.2141600       481.91736
       5.2158999       527.53306
       5.2176399       480.19150
       5.2193799       527.90795
       5.2211099       506.34768
       5.2228599       495.75141
       5.2245998       492.68094
       5.2263398       492.14520
       5.2280898       504.49454
       5.2298298       500.80849
       5.2315602       489.02346
       5.2333102       516.98115
       5.2350602       508.43739
       5.2368102       501.60165
       5.2385502       517.14111
       5.2402902       472.96159
       5.2420402       496.04723
       5.2437901       520.19357
       5.2455401       493.87794
       5.2472901       488.97440
       5.2490401       493.69633
       5.2507901       528.99008
       5.2525401       486.05095
       5.2542901       510.13087
       5.2560401       479.13957
       5.2577901       481.91907
       5.2595401       519.77045
       5.2612901       488.98572
       5.2630501       492.59597
       5.2648101       521.92974
       5.2665601       498.11124
       5.2683101       476.02984
       5.2700601       494.67985
       5.2718201       497.32446
       5.2735901       482.45517
       5.2753401       526.23398
       5.2771001       493.34069
       5.2788601       524.49525
       5.2806101       482.12918
       5.2823701       468.07100
       5.2841401       508.61375
       5.2859001       475.15770
       5.2876601       497.34712
       5.2894201       511.68363
       5.2911901       514.05299
       5.2929502       479.78081
       5.2947102       471.08075
       5.2964702       475.48030
       5.2982502       516.15254
       5.3000102       490.01269
       5.3017702       496.82064
       5.3035498       495.81901
       5.3053098       495.76077
       5.3070798       491.07278
       5.3088498       459.65132
       5.3106298       490.18334
       5.3123999       489.10404
       5.3141599       501.88759
       5.3159299       463.63366
       5.3176999       508.93880
       5.3194699       487.42009
       5.3212500       514.27585
       5.3230200       474.90740
       5.3248000       496.18184
       5.3265700       468.61133
       5.3283501       476.54428
       5.3301201       502.28060
       5.3319001       472.44747
       5.3336701       503.54757
       5.3354502       506.35327
       5.3372402       467.27372
       5.3390298       476.22366
       5.3407998       455.19003
       5.3425798       494.34986
       5.3443499       495.19895
       5.3461399       476.36597
       5.3479199       498.95917
       5.3497000       498.04088
       5.3514900       465.26040
       5.3532701       477.91703
       5.3550501       451.79409
       5.3568401       483.97123
       5.3586202       485.44489
       5.3604102       501.49623
       5.3621998       474.12898
       5.3639898       492.25719
       5.3657799       476.02852
       5.3675599       473.49407
       5.3693500       488.45433
       5.3711400       462.13703
       5.3729401       484.79125
       5.3747201       507.36925
       5.3765101       489.35936
       5.3783102       464.72423
       5.3800998       459.09700
       5.3818898       479.69312
       5.3836899       487.34755
       5.3854899       502.90726
       5.3872700       470.53882
       5.3890600       475.61305
       5.3908601       487.21083
       5.3926601       493.61621
       5.3944602       464.82514
       5.3962598       471.26640
       5.3980598       472.42251
       5.3998599       509.23719
       5.4016600       462.48521
       5.4034600       492.62683
       5.4052601       474.07502
       5.4070601       499.44710
       5.4088602       458.55383
       5.4106598       468.55418
       5.4124599       473.67199
       5.4142699       481.08032
       5.4160900       490.30680
       5.4178901       471.69485
       5.4196901       487.56730
       5.4215002       476.66008
       5.4233098       462.83222
       5.4251099       473.70647
       5.4269199       445.66750
       5.4287400       489.93024
       5.4305401       483.05314
       5.4323502       487.71338
       5.4341602       478.03497
       5.4359798       493.40759
       5.4377899       457.40223
       5.4396000       449.75717
       5.4414101       492.74578
       5.4432201       453.79447
       5.4450402       483.62193
       5.4468498       484.42254
       5.4486699       497.86483
       5.4504900       466.96667
       5.4523001       461.38939
       5.4541202       454.76834
       5.4559398       464.18269
       5.4577498       485.73061
       5.4595699       458.22299
       5.4614000       484.49185
       5.4632201       477.10673
       5.4650402       475.28975
       5.4668498       452.62250
       5.4686799       461.22636
       5.4705000       476.88193
       5.4723201       456.81149
       5.4741502       478.61269
       5.4759798       474.56042
       5.4777999       459.26057
       5.4796200       484.94418
       5.4814501       461.12377
       5.4832702       463.56217
       5.4850998       466.49025
       5.4869399       472.69940
       5.4887700       476.64380
       5.4906001       456.37969
       5.4924202       483.53808
       5.4942498       460.05256
       5.4960899       471.05525
       5.4979200       464.98689
       5.4994102       451.19071
