wavelength       flux
  microns         mJy
      
      0.80013400       11.206780
      0.80040097       11.949084
      0.80066800       11.932523
      0.80093497       11.859023
      0.80120200       12.227352
      0.80146903       12.030773
      0.80173600       12.372052
      0.80200303       12.112860
      0.80227000       12.144423
      0.80253798       12.378589
      0.80280501       11.588816
      0.80307299       11.612255
      0.80334002       12.376346
      0.80360800       12.024473
      0.80387598       12.447828
      0.80414498       12.340166
      0.80441201       12.432891
      0.80467999       11.995664
      0.80494899       11.132533
      0.80521703       12.105925
      0.80548501       12.440182
      0.80575401       12.232732
      0.80602199       12.600451
      0.80629098       12.409789
      0.80655998       12.341636
      0.80682898       12.514032
      0.80709797       12.149095
      0.80736703       11.689660
      0.80763602       11.848419
      0.80790502       12.576974
      0.80817401       12.356833
      0.80844402       12.296639
      0.80871302       11.939480
      0.80898303       12.849549
      0.80925298       11.916316
      0.80952299       11.597960
      0.80979198       12.326938
      0.81006199       12.219497
      0.81033200       12.535870
      0.81060201       12.345663
      0.81087202       12.426229
      0.81114298       12.242907
      0.81141299       12.750202
      0.81168300       12.173601
      0.81195402       12.355712
      0.81222498       12.744455
      0.81249499       12.918525
      0.81276602       12.522425
      0.81303698       12.741065
      0.81330800       12.570329
      0.81357902       13.099522
      0.81384999       12.614162
      0.81412202       12.752263
      0.81439298       12.800749
      0.81466401       12.998221
      0.81493598       12.970776
      0.81520802       12.213163
      0.81547898       12.985329
      0.81575102       12.867722
      0.81602299       13.197368
      0.81629598       12.575234
      0.81656700       12.996874
      0.81683898       13.167954
      0.81711203       12.970586
      0.81738400       13.250273
      0.81765699       12.961260
      0.81792998       13.338973
      0.81820202       12.621105
      0.81847501       12.603036
      0.81874698       13.290168
      0.81901997       12.625355
      0.81929302       13.798601
      0.81956702       12.430554
      0.81984001       12.503141
      0.82011300       12.992862
      0.82038599       13.266378
      0.82066000       12.628523
      0.82093298       12.946332
      0.82120699       13.411433
      0.82147998       12.656343
      0.82175398       13.366945
      0.82202798       13.854430
      0.82230198       12.441140
      0.82257599       13.597014
      0.82284999       13.946701
      0.82312500       13.458592
      0.82339901       12.897003
      0.82367402       13.585609
      0.82394898       13.693191
      0.82422298       13.532768
      0.82449800       13.347927
      0.82477301       14.126043
      0.82504803       13.435151
      0.82532299       13.677600
      0.82559800       13.837912
      0.82587302       13.650165
      0.82614797       14.031234
      0.82642299       14.142869
      0.82669902       13.936329
      0.82697397       13.660694
      0.82725000       14.097852
      0.82752699       13.655658
      0.82780200       13.880649
      0.82807702       14.178627
      0.82835299       14.014582
      0.82862997       14.249350
      0.82890600       13.819802
      0.82918298       14.104421
      0.82945901       13.853907
      0.82973498       13.940867
      0.83001202       13.685550
      0.83028901       14.280530
      0.83056498       14.023606
      0.83084202       13.373683
      0.83111900       13.612420
      0.83139598       13.754104
      0.83167398       14.193432
      0.83195102       14.187814
      0.83222800       13.905730
      0.83250499       14.400078
      0.83278298       14.040029
      0.83306098       13.278070
      0.83333802       13.610197
      0.83361602       13.806864
      0.83389300       14.200496
      0.83417100       14.124855
      0.83444899       14.271417
      0.83472800       13.971921
      0.83500600       13.559033
      0.83528399       14.794419
      0.83556300       14.264552
      0.83584100       14.668136
      0.83612001       14.452204
      0.83639902       14.509153
      0.83667803       13.253542
      0.83695698       15.102499
      0.83723497       14.337795
      0.83751500       14.740373
      0.83779401       14.998328
      0.83807302       14.237682
      0.83835298       14.222654
      0.83863199       14.153854
      0.83891100       12.980197
      0.83919102       14.344816
      0.83947098       15.375178
      0.83974999       15.212395
      0.84003001       14.288238
      0.84030998       14.474159
      0.84059000       15.068984
      0.84087002       15.146185
      0.84115100       15.324119
      0.84143102       14.455326
      0.84171200       15.371095
      0.84199202       14.528174
      0.84227300       15.007209
      0.84255397       14.576563
      0.84283501       14.089421
      0.84311599       15.627958
      0.84339702       15.439861
      0.84367800       13.512051
      0.84395897       15.608054
      0.84424001       14.411927
      0.84452200       15.566007
      0.84480298       15.140126
      0.84508502       15.398295
      0.84536600       15.468583
      0.84564799       15.710718
      0.84592998       15.208361
      0.84621298       15.610210
      0.84649402       15.772969
      0.84677601       15.297841
      0.84705800       14.129157
      0.84734100       15.313319
      0.84762299       16.110192
      0.84790599       15.850504
      0.84818900       15.708181
      0.84847099       15.420912
      0.84875399       15.998703
      0.84903699       15.860975
      0.84931999       16.074452
      0.84960300       15.947687
      0.84988600       13.468402
      0.85017002       13.383976
      0.85045302       15.566185
      0.85073602       15.823847
      0.85101998       16.295121
      0.85130399       16.151796
      0.85158700       14.656567
      0.85187101       15.407901
      0.85215598       15.412798
      0.85243899       16.191498
      0.85272300       16.153587
      0.85300797       15.564889
      0.85329199       16.074281
      0.85357702       16.221931
      0.85386097       15.421064
      0.85414600       14.199709
      0.85443097       9.2843440
      0.85471499       14.209250
      0.85500002       15.188543
      0.85528499       16.201740
      0.85557002       16.623871
      0.85585600       15.981632
      0.85614097       16.633942
      0.85642600       16.421864
      0.85671198       16.452285
      0.85699701       16.399917
      0.85728300       16.690209
      0.85756898       16.492064
      0.85785401       16.621340
      0.85813999       16.996557
      0.85842597       16.008881
      0.85871202       16.635807
      0.85899901       16.774653
      0.85928500       16.828448
      0.85957199       16.831414
      0.85985798       16.737234
      0.86014497       16.661784
      0.86043203       16.839229
      0.86071801       16.458696
      0.86100501       16.997141
      0.86129200       15.889308
      0.86157900       17.147108
      0.86186701       17.037155
      0.86215401       17.160150
      0.86244100       16.496565
      0.86272901       17.191088
      0.86301601       17.250373
      0.86330402       17.228367
      0.86359102       17.178217
      0.86387998       17.202190
      0.86416698       17.200951
      0.86445498       16.941655
      0.86474299       17.660805
      0.86503202       16.619465
      0.86532098       17.536805
      0.86560899       17.208893
      0.86589700       17.265335
      0.86618602       15.747415
      0.86647499       10.310860
      0.86676401       16.259512
      0.86705297       17.164728
      0.86734200       17.262442
      0.86763102       15.853156
      0.86791998       17.562442
      0.86820900       16.839369
      0.86849898       17.231968
      0.86878800       17.589273
      0.86907798       14.589909
      0.86936700       17.256638
      0.86965698       17.666085
      0.86994702       18.178359
      0.87023699       16.645164
      0.87052798       17.736706
      0.87081701       18.081429
      0.87110698       18.057500
      0.87139797       16.869715
      0.87168801       17.849237
      0.87197900       17.768550
      0.87226897       18.132509
      0.87256002       18.158054
      0.87285101       18.445606
      0.87314200       17.704220
      0.87343299       18.470977
      0.87372398       17.279469
      0.87401497       18.022503
      0.87430698       18.341038
      0.87459898       18.019169
      0.87489003       18.250992
      0.87518102       18.247029
      0.87547302       17.768268
      0.87576598       18.732356
      0.87605798       17.601184
      0.87634999       18.855860
      0.87664098       18.025615
      0.87693298       18.245468
      0.87722498       18.639280
      0.87751800       17.515904
      0.87781000       18.692977
      0.87810302       18.637111
      0.87839597       19.041679
      0.87868899       18.706467
      0.87898201       18.916588
      0.87927502       18.313942
      0.87956798       18.269476
      0.87986100       18.843601
      0.88015401       19.100666
      0.88044798       19.140454
      0.88074100       17.994399
      0.88103402       16.425698
      0.88132799       19.073997
      0.88162202       19.247803
      0.88191599       19.351186
      0.88220900       18.801499
      0.88250399       18.847608
      0.88279802       17.660096
      0.88309199       19.415273
      0.88338602       19.655917
      0.88368100       19.124875
      0.88397598       18.353565
      0.88427001       19.103258
      0.88456500       19.477423
      0.88485998       19.219600
      0.88515502       19.665356
      0.88545001       19.753424
      0.88574499       19.804099
      0.88604099       19.775361
      0.88633603       19.476101
      0.88663101       18.985342
      0.88692701       18.924397
      0.88722199       19.547978
      0.88751799       20.044804
      0.88781399       19.551650
      0.88810998       19.325328
      0.88840598       20.023143
      0.88870198       19.946026
      0.88899899       20.162415
      0.88929498       20.065562
      0.88959098       19.836973
      0.88988698       20.153494
      0.89018399       20.230866
      0.89048100       20.264762
      0.89077801       20.373422
      0.89107502       20.104349
      0.89137203       20.222546
      0.89166898       20.469580
      0.89196599       20.387420
      0.89226300       19.663360
      0.89256102       19.888544
      0.89285898       20.095380
      0.89315599       19.999116
      0.89345300       19.958532
      0.89375198       20.708339
      0.89404899       20.706502
      0.89434701       20.694977
      0.89464498       19.634713
      0.89494300       19.850455
      0.89524198       20.498127
      0.89554000       20.999747
      0.89583898       20.825009
      0.89613801       20.813460
      0.89643598       20.668303
      0.89673501       20.633826
      0.89703399       20.400120
      0.89733303       21.129021
      0.89763200       20.743682
      0.89793098       20.093192
      0.89823103       20.820202
      0.89853001       21.141576
      0.89882898       20.813134
      0.89912897       20.672095
      0.89942902       21.121306
      0.89972800       20.905050
      0.90002799       21.065655
      0.90032798       19.610527
      0.90062898       21.433263
      0.90092897       21.274860
      0.90122998       19.796066
      0.90153003       20.058657
      0.90183002       20.352705
      0.90213102       21.252514
      0.90243101       20.722410
      0.90273201       21.339855
      0.90303302       21.277685
      0.90333402       21.484694
      0.90363598       21.905379
      0.90393698       21.233968
      0.90423799       21.961131
      0.90453899       21.972757
      0.90484101       21.897812
      0.90514201       21.973416
      0.90544498       21.567218
      0.90574598       22.053939
      0.90604699       21.864756
      0.90635002       21.104828
      0.90665197       22.057473
      0.90695399       22.049234
      0.90725601       21.849772
      0.90755898       22.264229
      0.90786099       22.301977
      0.90816402       20.965775
      0.90846699       22.427693
      0.90877002       21.980004
      0.90907300       19.849048
      0.90937603       21.827064
      0.90967900       21.589954
      0.90998203       22.398434
      0.91028500       21.577848
      0.91058898       21.992865
      0.91089201       21.757565
      0.91119599       22.088251
      0.91149998       21.794992
      0.91180301       22.372108
      0.91210699       21.471753
      0.91241097       22.805384
      0.91271502       22.322853
      0.91302001       22.897686
      0.91332400       22.849636
      0.91362798       22.889881
      0.91393298       22.705366
      0.91423798       21.671908
      0.91454202       21.761801
      0.91484702       21.785443
      0.91515201       21.919015
      0.91545701       22.706607
      0.91576201       21.926829
      0.91606802       22.459747
      0.91637301       22.759597
      0.91667801       22.163261
      0.91698402       21.324829
      0.91728997       21.551552
      0.91759598       20.748462
      0.91790098       22.409431
      0.91820699       22.216876
      0.91851300       22.021678
      0.91881901       22.572893
      0.91912597       21.960386
      0.91943198       22.066198
      0.91973901       22.696745
      0.92004502       21.592880
      0.92035198       22.431826
      0.92065901       22.210001
      0.92096603       22.268377
      0.92127299       21.250858
      0.92158002       21.969453
      0.92188698       22.023388
      0.92219400       22.056656
      0.92250198       23.863002
      0.92280900       21.632947
      0.92311698       22.501035
      0.92342401       21.897545
      0.92373198       23.246451
      0.92404002       22.642800
      0.92434800       22.226267
      0.92465597       23.454052
      0.92496401       22.332679
      0.92527300       23.033031
      0.92558098       23.634706
      0.92589003       21.691647
      0.92619801       22.044529
      0.92650700       22.602677
      0.92681599       23.895299
      0.92712498       24.087891
      0.92743403       22.835171
      0.92774302       24.301989
      0.92805201       23.142324
      0.92836201       23.154026
      0.92867100       24.818843
      0.92898101       22.961878
      0.92929000       22.716634
      0.92960000       23.866073
      0.92991000       22.803212
      0.93022001       24.662820
      0.93053001       24.274162
      0.93084002       23.137450
      0.93115002       24.972902
      0.93146098       24.012161
      0.93177098       24.619785
      0.93208200       23.403414
      0.93239301       24.331888
      0.93270302       24.373398
      0.93301398       23.729540
      0.93332499       25.558539
      0.93363601       23.711893
      0.93394798       24.872191
      0.93425900       24.983624
      0.93457001       24.817269
      0.93488199       24.750221
      0.93519300       23.914104
      0.93550599       25.351935
      0.93581700       24.243055
      0.93612897       24.327243
      0.93644100       24.115065
      0.93675297       25.064317
      0.93706501       24.626748
      0.93737799       24.852938
      0.93769002       24.829585
      0.93800300       25.565574
      0.93831599       24.375748
      0.93862802       24.640297
      0.93894100       25.138238
      0.93925399       25.363586
      0.93956703       24.583246
      0.93988001       24.352289
      0.94019401       25.633948
      0.94050699       24.950254
      0.94081998       24.128418
      0.94113398       25.516330
      0.94144797       23.933979
      0.94176102       23.050097
      0.94207501       25.020978
      0.94238901       24.934992
      0.94270402       25.193859
      0.94301802       26.094365
      0.94333202       24.339616
      0.94364703       25.092122
      0.94396198       24.988175
      0.94427598       24.868285
      0.94459099       25.243406
      0.94490600       24.848213
      0.94522101       25.740239
      0.94553602       25.420799
      0.94585103       25.768328
      0.94616598       26.058298
      0.94648099       25.163091
      0.94679701       26.334939
      0.94711298       25.933223
      0.94742799       26.974299
      0.94774401       26.418825
      0.94805998       25.732401
      0.94837600       26.321759
      0.94869298       26.191101
      0.94900799       25.633553
      0.94932503       27.499267
      0.94964099       26.082359
      0.94995803       26.766269
      0.95027399       26.864557
      0.95059103       26.185240
      0.95090801       26.950174
      0.95122498       25.755856
      0.95154202       26.944114
      0.95185900       27.562096
      0.95217699       25.927544
      0.95249403       28.099515
      0.95281100       26.563418
      0.95312899       26.732825
      0.95344698       28.283644
      0.95376402       25.772203
      0.95408201       28.166770
      0.95440000       27.663841
      0.95471799       25.273796
      0.95503700       27.086855
      0.95535499       27.217251
      0.95567399       27.514344
      0.95599198       27.007849
      0.95631099       27.443859
      0.95662999       27.559266
      0.95694900       28.374210
      0.95726800       26.774650
      0.95758700       26.599289
      0.95790601       28.147287
      0.95822501       27.470306
      0.95854402       28.328415
      0.95886397       27.573065
      0.95918298       28.294738
      0.95950300       28.975799
      0.95982301       27.767697
      0.96014398       26.954566
      0.96046299       28.634699
      0.96078300       27.650585
      0.96110302       27.688285
      0.96142399       29.349747
      0.96174401       28.876190
      0.96206498       28.696374
      0.96238601       28.415725
      0.96270698       27.844370
      0.96302801       28.429149
      0.96334898       29.684276
      0.96367002       28.242091
      0.96399099       26.563174
      0.96431202       29.413718
      0.96463299       29.076044
      0.96495599       27.508352
      0.96527702       29.305126
      0.96559799       28.471454
      0.96592098       28.778300
      0.96624202       28.656023
      0.96656400       28.400267
      0.96688598       29.408862
      0.96720898       29.375117
      0.96753198       29.449000
      0.96785402       27.476274
      0.96817601       29.942728
      0.96849900       29.582408
      0.96882200       29.928659
      0.96914500       28.838487
      0.96946800       29.105193
      0.96979100       29.953856
      0.97011399       30.386974
      0.97043800       29.675122
      0.97076100       28.352180
      0.97108501       30.835680
      0.97140801       30.799803
      0.97173202       29.907519
      0.97205698       29.331229
      0.97237998       30.210558
      0.97270399       30.764458
      0.97302800       28.894981
      0.97335303       30.372388
      0.97367698       29.943941
      0.97400200       29.053108
      0.97432703       31.222915
      0.97465199       29.252326
      0.97497600       29.201014
      0.97530198       31.317603
      0.97562701       30.544329
      0.97595203       30.939803
      0.97627699       30.926839
      0.97660202       29.994866
      0.97692800       31.861486
      0.97725302       29.428292
      0.97757900       31.383435
      0.97790498       31.962217
      0.97823101       30.712519
      0.97855699       29.432144
      0.97888398       29.799689
      0.97921002       31.143801
      0.97953600       31.346303
      0.97986299       32.042194
      0.98018998       31.222949
      0.98051602       31.827317
      0.98084301       31.981194
      0.98117000       32.089167
      0.98149699       31.846820
      0.98182398       32.188037
      0.98215199       32.421733
      0.98247898       32.018889
      0.98280698       31.410694
      0.98313397       32.587679
      0.98346102       31.558751
      0.98378998       32.140280
      0.98411798       32.728525
      0.98444498       32.383882
      0.98477298       32.622424
      0.98510098       32.237973
      0.98543000       32.736124
      0.98575801       32.652076
      0.98608702       33.660393
      0.98641598       32.129166
      0.98674500       33.318810
      0.98707402       33.417728
      0.98740298       32.659579
      0.98773199       33.380838
      0.98806101       33.868005
      0.98839098       32.595793
      0.98872000       33.557810
      0.98904902       32.733960
      0.98937899       32.557505
      0.98970801       34.213549
      0.99003798       33.075361
      0.99036801       32.917662
      0.99069899       33.107575
      0.99102902       33.879591
      0.99135900       33.730853
      0.99168998       32.978181
      0.99202001       34.422954
      0.99235100       33.634764
      0.99268198       33.641085
      0.99301302       34.035017
      0.99334401       33.550284
      0.99367499       34.198966
      0.99400598       34.522315
      0.99433702       33.681050
      0.99466902       33.878040
      0.99500000       34.487499
      0.99533200       34.049077
      0.99566400       34.333399
      0.99599499       34.776503
      0.99632698       34.884905
      0.99665999       34.783020
      0.99699199       34.999363
      0.99732399       34.480430
      0.99765700       34.367611
      0.99798900       35.101679
      0.99832201       35.070383
      0.99865502       35.370277
      0.99898797       34.755065
      0.99932098       35.503935
      0.99965400       34.891911
      0.99996001       35.387349
       1.0003200       35.345080
       1.0006500       35.499054
       1.0009900       34.663732
       1.0013200       35.257980
       1.0016500       36.400637
       1.0019900       36.222298
       1.0023201       35.863899
       1.0026600       36.524201
       1.0029900       35.475204
       1.0033300       36.009905
       1.0036600       35.903696
       1.0039901       35.592506
       1.0043300       36.516343
       1.0046600       36.625975
       1.0050000       35.331457
       1.0053300       34.939080
       1.0056700       36.101945
       1.0060000       35.647261
       1.0063400       36.036695
       1.0066800       35.419097
       1.0070100       36.764602
       1.0073500       37.405837
       1.0076801       37.276571
       1.0080200       36.203357
       1.0083500       36.981689
       1.0086900       36.502268
       1.0090300       36.938071
       1.0093600       37.198358
       1.0096999       37.261383
       1.0100400       37.552507
       1.0103700       37.130188
       1.0107100       35.731412
       1.0110500       38.069170
       1.0113800       37.502454
       1.0117199       37.385788
       1.0120600       37.683444
       1.0123900       38.014464
       1.0127300       37.842796
       1.0130700       38.257106
       1.0134100       38.440598
       1.0137500       38.112229
       1.0140800       38.453957
       1.0144200       37.983363
       1.0147600       37.020866
       1.0151000       37.855634
       1.0154400       38.304693
       1.0157700       37.202861
       1.0161099       39.023604
       1.0164500       38.609695
       1.0167900       38.178671
       1.0171300       38.297516
       1.0174700       38.463750
       1.0178100       39.259502
       1.0181500       38.839999
       1.0184900       38.544585
       1.0188299       38.219562
       1.0191700       39.305376
       1.0195100       38.077713
       1.0198500       38.690581
       1.0201800       39.062259
       1.0205200       38.968401
       1.0208600       39.700478
       1.0211999       39.333709
       1.0215501       38.811941
       1.0218900       38.395099
       1.0222300       38.891790
       1.0225700       39.512440
       1.0229100       39.868023
       1.0232500       40.195160
       1.0235900       39.726851
       1.0239300       40.244559
       1.0242701       40.021784
       1.0246100       40.691640
       1.0249600       40.296624
       1.0253000       40.671782
       1.0256400       40.639931
       1.0259800       40.767325
       1.0263200       40.471408
       1.0266700       40.143104
       1.0270100       41.114121
       1.0273499       40.540124
       1.0276901       41.087734
       1.0280401       41.349828
       1.0283800       41.341450
       1.0287200       41.094609
       1.0290600       39.350446
       1.0294100       41.597840
       1.0297500       41.675939
       1.0300900       41.082268
       1.0304400       41.123857
       1.0307800       41.837269
       1.0311199       41.654717
       1.0314699       41.620202
       1.0318100       41.926170
       1.0321600       42.095698
       1.0325000       41.921479
       1.0328400       41.313620
       1.0331900       39.991167
       1.0335300       41.723643
       1.0338800       41.829396
       1.0342200       41.140608
       1.0345600       40.529907
       1.0349100       41.976606
       1.0352499       42.559473
       1.0355999       42.020940
       1.0359499       42.546942
       1.0362900       43.196893
       1.0366400       42.552447
       1.0369800       43.141431
       1.0373300       40.928774
       1.0376700       42.297444
       1.0380200       41.580319
       1.0383700       43.469196
       1.0387100       43.688840
       1.0390600       43.462940
       1.0394000       43.129010
       1.0397500       41.961873
       1.0401000       41.601090
       1.0404400       43.828092
       1.0407900       43.435703
       1.0411400       43.570750
       1.0414799       44.007220
       1.0418299       43.355695
       1.0421799       44.447665
       1.0425299       42.291649
       1.0428700       43.523561
       1.0432200       44.380756
       1.0435700       44.159481
       1.0439200       44.010357
       1.0442700       44.553100
       1.0446100       44.833141
       1.0449600       44.591110
       1.0453100       44.889300
       1.0456600       44.574754
       1.0460100       44.332723
       1.0463600       43.868255
       1.0467000       45.322869
       1.0470500       44.001490
       1.0474000       43.456661
       1.0477500       45.265586
       1.0481000       45.060962
       1.0484500       44.824246
       1.0488000       44.616591
       1.0491500       45.828998
       1.0495000       45.884389
       1.0498500       44.230279
       1.0502000       46.040474
       1.0505500       45.184679
       1.0509000       45.712925
       1.0512500       45.216382
       1.0516000       45.936175
       1.0519500       45.901153
       1.0523000       46.271226
       1.0526500       46.416368
       1.0530000       46.511703
       1.0533500       44.468163
       1.0537000       46.552682
       1.0540500       46.706216
       1.0544100       46.365988
       1.0547600       47.197000
       1.0551100       46.905339
       1.0554600       46.089262
       1.0558100       47.071655
       1.0561600       46.938190
       1.0565200       47.387998
       1.0568700       47.033929
       1.0572200       46.734751
       1.0575700       46.521837
       1.0579300       46.322094
       1.0582800       47.336036
       1.0586300       43.618721
       1.0589800       45.035382
       1.0593400       47.178062
       1.0596900       47.549564
       1.0600400       48.089529
       1.0604000       47.853583
       1.0607500       44.537705
       1.0611000       47.645115
       1.0614600       48.188930
       1.0618100       47.711641
       1.0621700       48.007782
       1.0625200       48.547426
       1.0628700       47.522327
       1.0632300       47.449177
       1.0635800       48.641685
       1.0639400       48.722216
       1.0642900       49.129929
       1.0646501       49.003601
       1.0650001       48.500600
       1.0653600       49.227421
       1.0657099       49.023437
       1.0660700       49.464776
       1.0664200       45.133030
       1.0667800       49.388779
       1.0671300       48.788440
       1.0674900       48.621860
       1.0678400       48.882193
       1.0682000       49.772605
       1.0685600       48.576790
       1.0689100       49.005465
       1.0692700       46.875625
       1.0696300       48.086648
       1.0699800       50.347245
       1.0703400       48.810071
       1.0707000       48.737387
       1.0710500       49.273622
       1.0714099       50.535007
       1.0717700       50.025137
       1.0721200       49.197903
       1.0724800       50.842563
       1.0728400       48.205334
       1.0732000       48.359641
       1.0735500       48.791968
       1.0739100       51.179143
       1.0742700       50.896997
       1.0746300       50.086770
       1.0749900       50.833046
       1.0753500       48.562932
       1.0757000       49.502777
       1.0760601       51.495058
       1.0764199       51.601630
       1.0767800       51.482989
       1.0771400       51.056628
       1.0775000       51.811529
       1.0778600       51.022666
       1.0782200       51.574453
       1.0785800       49.361903
       1.0789400       48.998686
       1.0793000       52.164712
       1.0796601       51.365320
       1.0800101       51.590692
       1.0803699       51.808001
       1.0807300       51.919675
       1.0810900       51.624614
       1.0814500       48.082330
       1.0818200       52.536720
       1.0821800       51.380025
       1.0825400       52.401613
       1.0829000       48.707153
       1.0832601       52.202918
       1.0836200       51.554066
       1.0839800       53.177066
       1.0843400       52.700396
       1.0847000       50.762418
       1.0850700       52.967729
       1.0854300       53.473264
       1.0857900       53.513362
       1.0861501       53.638128
       1.0865099       52.319291
       1.0868700       53.986918
       1.0872400       47.907789
       1.0876000       51.737583
       1.0879600       53.431547
       1.0883300       52.712572
       1.0886900       50.321732
       1.0890501       53.711244
       1.0894099       53.208590
       1.0897800       52.015650
       1.0901400       54.437662
       1.0905000       54.529602
       1.0908700       53.889625
       1.0912300       54.533392
       1.0915999       54.493646
       1.0919600       52.834048
       1.0923200       54.329459
       1.0926900       54.098922
       1.0930500       50.355944
       1.0934200       52.396487
       1.0937800       53.468224
       1.0941401       51.152273
       1.0945100       52.997440
       1.0948700       54.107678
       1.0952400       53.342413
       1.0956000       51.850303
       1.0959700       52.768364
       1.0963300       54.559382
       1.0967000       47.984042
       1.0970600       49.982789
       1.0974300       53.452036
       1.0978000       52.946279
       1.0981600       49.521091
       1.0985301       52.965661
       1.0988899       51.632654
       1.0992600       53.662873
       1.0996300       54.178965
       1.0999900       50.550667
       1.1003600       53.976418
       1.1007299       52.341565
       1.1010900       54.273639
       1.1014600       52.823434
       1.1018300       52.755727
       1.1022000       52.146456
       1.1025600       52.562113
       1.1029299       55.862121
       1.1033000       51.479904
       1.1036700       54.946356
       1.1040300       53.170458
       1.1044000       56.094794
       1.1047699       53.961275
       1.1051400       54.629992
       1.1055100       56.757186
       1.1058800       54.537739
       1.1062400       53.938496
       1.1066099       55.869865
       1.1069800       56.020070
       1.1073500       55.569946
       1.1077200       56.094015
       1.1080900       54.992903
       1.1084599       55.648448
       1.1088300       57.896403
       1.1092000       55.485630
       1.1095700       55.272111
       1.1099401       56.144653
       1.1103100       57.517645
       1.1106800       55.199467
       1.1110500       57.065743
       1.1114200       58.053834
       1.1117899       57.809235
       1.1121600       53.639099
       1.1125300       58.104399
       1.1129000       58.149241
       1.1132700       57.153217
       1.1136400       54.627844
       1.1140100       60.087656
       1.1143900       58.727654
       1.1147600       54.203375
       1.1151299       58.879426
       1.1155000       59.098093
       1.1158700       58.294741
       1.1162400       56.057559
       1.1166199       60.624970
       1.1169900       59.502306
       1.1173600       57.962416
       1.1177300       57.564840
       1.1181099       60.709274
       1.1184800       59.690540
       1.1188500       57.298433
       1.1192200       55.912498
       1.1196001       60.584770
       1.1199700       57.593222
       1.1203400       58.163406
       1.1207200       59.036420
       1.1210901       60.595878
       1.1214600       59.413916
       1.1218400       60.017290
       1.1222100       61.141721
       1.1225899       60.022989
       1.1229600       59.674641
       1.1233300       59.385489
       1.1237100       61.625824
       1.1240799       61.245896
       1.1244600       61.675746
       1.1248300       56.975353
       1.1252100       62.999219
       1.1255800       56.389406
       1.1259600       58.817259
       1.1263300       56.936710
       1.1267101       63.226329
       1.1270800       62.363685
       1.1274600       62.617438
       1.1278400       60.164744
       1.1282099       60.110515
       1.1285900       63.654128
       1.1289600       62.359077
       1.1293401       60.762691
       1.1297200       60.909600
       1.1300900       58.680112
       1.1304700       64.139032
       1.1308500       63.013452
       1.1312200       61.231367
       1.1316000       59.750820
       1.1319799       63.770956
       1.1323600       64.131071
       1.1327300       63.884489
       1.1331100       62.091607
       1.1334900       59.879302
       1.1338700       63.448598
       1.1342400       62.962342
       1.1346200       64.379995
       1.1350000       63.313071
       1.1353800       62.698515
       1.1357599       60.852194
       1.1361400       65.033773
       1.1365100       64.718921
       1.1368901       64.399961
       1.1372700       64.772474
       1.1376500       58.719079
       1.1380301       65.481119
       1.1384100       61.095640
       1.1387900       65.916662
       1.1391701       63.731080
       1.1395500       59.989539
       1.1399300       64.424269
       1.1403100       65.139141
       1.1406900       61.289357
       1.1410700       64.846437
       1.1414500       63.562375
       1.1418300       65.537677
       1.1422100       65.229127
       1.1425900       62.878538
       1.1429700       65.248889
       1.1433500       67.232817
       1.1437300       64.022039
       1.1441100       62.680992
       1.1445000       66.148756
       1.1448801       65.719519
       1.1452600       66.221321
       1.1456400       68.019782
       1.1460201       63.731580
       1.1464100       67.297785
       1.1467900       67.896908
       1.1471699       67.572056
       1.1475500       64.816232
       1.1479300       68.115757
       1.1483200       64.800061
       1.1487000       66.639017
       1.1490800       67.181707
       1.1494700       68.213311
       1.1498500       67.221839
       1.1502301       69.008112
       1.1506100       64.966998
       1.1510000       69.468418
       1.1513799       67.680895
       1.1517700       68.741285
       1.1521500       67.332797
       1.1525300       68.108427
       1.1529200       67.718936
       1.1533000       67.835111
       1.1536900       69.008919
       1.1540700       70.088520
       1.1544600       67.020105
       1.1548400       70.626448
       1.1552300       69.218557
       1.1556100       68.351231
       1.1560000       70.751782
       1.1563801       69.410285
       1.1567700       69.009249
       1.1571500       70.831301
       1.1575400       70.582918
       1.1579200       68.074676
       1.1583101       70.715167
       1.1587000       69.715671
       1.1590800       69.449946
       1.1594700       67.904181
       1.1598600       66.726350
       1.1602401       70.128606
       1.1606300       70.452089
       1.1610200       65.719099
       1.1614000       65.734162
       1.1617900       69.460174
       1.1621799       71.653404
       1.1625600       72.136273
       1.1629500       70.836552
       1.1633400       70.139970
       1.1637300       71.899561
       1.1641099       67.887254
       1.1645000       69.945179
       1.1648901       72.852418
       1.1652800       72.054941
       1.1656700       71.342876
       1.1660600       71.170984
       1.1664500       71.950841
       1.1668299       72.141012
       1.1672200       70.059388
       1.1676100       73.568034
       1.1680000       73.357976
       1.1683900       72.232737
       1.1687800       72.248880
       1.1691700       66.591152
       1.1695600       71.644631
       1.1699500       72.622319
       1.1703399       72.703839
       1.1707300       74.405194
       1.1711200       72.952899
       1.1715100       72.979354
       1.1719000       73.603854
       1.1722900       74.791691
       1.1726800       72.304762
       1.1730700       74.195818
       1.1734700       74.891717
       1.1738600       73.520834
       1.1742500       73.323849
       1.1746401       75.157215
       1.1750300       74.109065
       1.1754200       73.104626
       1.1758100       72.567755
       1.1762100       75.873632
       1.1766000       75.258690
       1.1769900       74.519079
       1.1773800       73.442183
       1.1777800       72.805388
       1.1781700       74.339607
       1.1785600       69.294901
       1.1789500       76.043286
       1.1793500       75.920941
       1.1797400       75.412593
       1.1801300       74.860778
       1.1805300       76.441141
       1.1809200       76.684837
       1.1813101       73.520476
       1.1817100       76.184467
       1.1821001       76.702241
       1.1824900       76.363900
       1.1828901       73.689936
       1.1832800       66.256379
       1.1836801       77.752074
       1.1840700       75.950124
       1.1844701       75.256537
       1.1848600       78.018867
       1.1852601       76.657484
       1.1856500       77.697753
       1.1860501       77.069930
       1.1864400       76.947091
       1.1868401       78.222704
       1.1872300       78.375442
       1.1876301       75.488073
       1.1880200       78.716914
       1.1884201       72.680656
       1.1888200       70.734008
       1.1892101       76.107481
       1.1896100       76.306920
       1.1900100       78.056317
       1.1904000       79.074234
       1.1908000       78.507748
       1.1912000       78.415063
       1.1915900       79.315799
       1.1919900       80.213865
       1.1923900       78.634343
       1.1927900       78.565307
       1.1931800       80.137856
       1.1935800       80.365847
       1.1939800       79.038176
       1.1943800       79.477827
       1.1947700       79.721677
       1.1951700       77.719368
       1.1955700       79.792310
       1.1959701       77.623024
       1.1963700       80.943436
       1.1967700       80.560076
       1.1971700       79.491004
       1.1975600       68.826998
       1.1979600       80.046188
       1.1983600       80.784226
       1.1987600       74.623617
       1.1991600       80.291367
       1.1995600       75.171085
       1.1999600       81.498637
       1.2003599       81.635341
       1.2007600       77.810865
       1.2011600       81.407816
       1.2015600       81.709145
       1.2019600       81.837075
       1.2023600       81.347694
       1.2027600       82.129114
       1.2031699       81.182353
       1.2035700       74.420303
       1.2039700       81.374173
       1.2043700       80.070252
       1.2047700       81.450971
       1.2051700       82.865623
       1.2055700       82.181877
       1.2059799       82.233203
       1.2063800       82.750562
       1.2067800       82.171297
       1.2071800       82.511440
       1.2075800       82.117585
       1.2079901       83.279285
       1.2083900       80.994460
       1.2087899       71.652006
       1.2092000       83.924098
       1.2096000       83.285007
       1.2100000       82.685821
       1.2104000       83.463718
       1.2108099       80.085031
       1.2112100       82.938279
       1.2116200       84.080399
       1.2120200       83.693328
       1.2124200       83.923615
       1.2128299       84.496050
       1.2132300       84.541654
       1.2136400       83.893693
       1.2140400       85.920736
       1.2144500       85.057439
       1.2148499       84.586973
       1.2152600       85.930367
       1.2156600       84.581854
       1.2160701       85.926180
       1.2164700       86.203371
       1.2168800       84.749468
       1.2172800       86.615925
       1.2176900       85.666517
       1.2180901       86.506683
       1.2185000       85.623794
       1.2189100       86.981842
       1.2193100       84.428723
       1.2197200       85.875479
       1.2201300       84.573274
       1.2205300       87.716924
       1.2209400       85.820824
       1.2213500       86.507456
       1.2217500       84.989862
       1.2221600       87.687651
       1.2225699       87.123597
       1.2229800       86.187700
       1.2233800       86.624750
       1.2237900       88.370749
       1.2242000       87.313763
       1.2246100       87.299870
       1.2250201       88.270711
       1.2254200       87.027929
       1.2258300       88.153701
       1.2262400       88.043896
       1.2266500       88.811173
       1.2270600       88.941899
       1.2274700       83.736489
       1.2278800       89.067324
       1.2282900       89.100467
       1.2287000       88.959639
       1.2291000       88.669276
       1.2295099       89.852562
       1.2299200       88.979105
       1.2303300       89.303287
       1.2307400       90.031688
       1.2311500       90.088508
       1.2315600       88.585893
       1.2319800       90.272514
       1.2323900       88.894551
       1.2328000       90.293538
       1.2332100       89.651816
       1.2336200       89.889211
       1.2340300       88.520964
       1.2344400       87.330047
       1.2348500       90.102162
       1.2352700       91.262970
       1.2356800       88.913881
       1.2360899       88.073142
       1.2365000       88.442836
       1.2369100       89.544625
       1.2373199       90.570207
       1.2377400       92.483905
       1.2381500       91.991217
       1.2385600       91.372934
       1.2389801       92.284938
       1.2393900       90.503540
       1.2398000       89.313469
       1.2402101       90.667489
       1.2406300       91.447965
       1.2410400       91.594567
       1.2414600       93.455860
       1.2418700       91.408685
       1.2422800       91.433555
       1.2427000       89.749973
       1.2431099       92.438295
       1.2435300       88.105682
       1.2439400       93.066437
       1.2443500       94.248160
       1.2447701       93.502475
       1.2451900       93.630127
       1.2456000       94.131650
       1.2460099       93.278365
       1.2464300       94.271684
       1.2468500       94.184595
       1.2472600       92.724442
       1.2476799       94.398717
       1.2480900       94.719359
       1.2485100       94.770230
       1.2489200       95.041751
       1.2493401       95.427418
       1.2497600       94.119485
       1.2501700       94.757025
       1.2505900       94.841255
       1.2510099       96.115010
       1.2514300       92.144535
       1.2518400       92.458637
       1.2522600       93.078909
       1.2526799       90.583815
       1.2530900       94.103820
       1.2535100       93.653991
       1.2539300       95.811079
       1.2543499       96.196320
       1.2547700       96.226514
       1.2551800       97.031020
       1.2556000       96.794318
       1.2560199       94.599451
       1.2564400       95.836296
       1.2568600       95.524876
       1.2572800       96.203104
       1.2577000       96.837717
       1.2581199       97.248300
       1.2585400       94.885575
       1.2589600       98.550914
       1.2593700       96.491114
       1.2597899       98.408329
       1.2602201       96.897072
       1.2606400       98.428330
       1.2610500       97.333417
       1.2614700       96.828524
       1.2618901       96.098794
       1.2623200       98.525436
       1.2627400       99.251280
       1.2631600       98.383658
       1.2635800       99.099672
       1.2640001       96.702247
       1.2644200       97.649109
       1.2648400       99.167299
       1.2652600       96.783249
       1.2656900       100.05894
       1.2661099       99.609667
       1.2665300       100.47804
       1.2669500       98.225391
       1.2673700       98.896722
       1.2678000       101.06287
       1.2682199       96.441760
       1.2686400       99.448298
       1.2690700       100.73322
       1.2694900       100.77840
       1.2699100       99.509505
       1.2703300       101.16194
       1.2707601       100.34893
       1.2711800       99.942111
       1.2716100       100.71150
       1.2720300       102.00996
       1.2724500       102.42905
       1.2728800       101.66523
       1.2733001       102.00907
       1.2737300       101.17663
       1.2741500       100.43114
       1.2745800       100.17215
       1.2750000       102.27337
       1.2754300       102.60383
       1.2758501       103.29006
       1.2762800       103.14719
       1.2767000       103.21554
       1.2771300       102.97237
       1.2775500       102.98551
       1.2779800       103.57183
       1.2783999       103.05897
       1.2788301       104.30387
       1.2792600       102.77674
       1.2796800       103.31131
       1.2801100       103.60275
       1.2805400       103.83830
       1.2809600       100.57466
       1.2813900       101.11032
       1.2818201       100.07747
       1.2822500       96.230821
       1.2826700       96.502671
       1.2831000       101.92304
       1.2835300       102.08229
       1.2839500       105.36042
       1.2843800       102.81460
       1.2848099       105.76047
       1.2852401       102.83252
       1.2856700       105.85907
       1.2861000       106.13304
       1.2865300       105.64595
       1.2869500       106.73779
       1.2873800       105.20550
       1.2878100       105.86466
       1.2882400       102.84466
       1.2886699       106.07227
       1.2891001       107.18462
       1.2895300       106.93549
       1.2899600       105.75920
       1.2903900       100.26199
       1.2908200       107.12959
       1.2912500       103.78011
       1.2916800       107.39303
       1.2921100       107.46631
       1.2925400       104.94903
       1.2929699       107.33154
       1.2934000       106.84825
       1.2938401       103.98536
       1.2942700       107.23955
       1.2947000       108.30944
       1.2951300       107.63106
       1.2955600       107.85065
       1.2959900       107.65978
       1.2964200       108.84378
       1.2968600       107.91373
       1.2972900       107.32422
       1.2977200       108.83111
       1.2981499       105.45942
       1.2985899       109.91712
       1.2990201       108.69838
       1.2994500       108.74602
       1.2998900       110.40562
       1.3003200       109.53463
       1.3007500       109.28833
       1.3011900       109.32479
       1.3016200       109.33344
       1.3020500       110.25989
       1.3024900       110.52455
       1.3029200       110.65114
       1.3033600       108.81739
       1.3037900       109.00116
       1.3042300       109.04394
       1.3046600       110.38726
       1.3050900       110.88301
       1.3055300       110.66024
       1.3059601       112.12576
       1.3063999       111.43095
       1.3068399       110.08231
       1.3072701       111.93136
       1.3077101       111.93086
       1.3081400       111.00233
       1.3085800       112.95423
       1.3090200       111.40697
       1.3094500       113.56528
       1.3098900       111.82726
       1.3103300       110.81305
       1.3107600       112.58799
       1.3112000       113.32846
       1.3116400       113.42973
       1.3120700       111.80695
       1.3125100       103.12027
       1.3129500       112.33983
       1.3133900       113.15743
       1.3138200       111.16734
       1.3142600       114.81001
       1.3147000       113.64112
       1.3151400       111.67646
       1.3155800       103.89174
       1.3160200       113.39829
       1.3164500       115.12591
       1.3168900       114.86565
       1.3173300       115.19639
       1.3177700       116.14423
       1.3182100       112.09211
       1.3186500       114.10770
       1.3190900       116.25916
       1.3195300       115.37413
       1.3199700       115.23742
       1.3204100       112.95826
       1.3208500       116.65656
       1.3212900       115.37550
       1.3217300       113.77928
       1.3221700       115.60224
       1.3226100       115.64860
       1.3230500       117.61229
       1.3234900       117.15750
       1.3239300       117.47171
       1.3243700       118.01825
       1.3248200       117.78253
       1.3252600       116.19471
       1.3257000       118.33261
       1.3261400       117.57065
       1.3265800       116.50669
       1.3270299       116.59824
       1.3274699       117.91324
       1.3279099       118.48360
       1.3283499       115.13655
       1.3288000       118.50164
       1.3292400       110.92404
       1.3296800       113.71370
       1.3301200       119.32370
       1.3305700       117.58744
       1.3310100       117.48601
       1.3314500       119.06677
       1.3319000       119.54897
       1.3323400       110.32095
       1.3327900       119.09938
       1.3332300       119.18415
       1.3336800       119.95830
       1.3341200       121.01611
       1.3345701       119.34438
       1.3350101       119.96121
       1.3354501       118.03911
       1.3358999       121.04504
       1.3363500       121.10371
       1.3367900       121.90551
       1.3372400       121.05195
       1.3376800       121.15416
       1.3381300       121.59069
       1.3385700       120.77921
       1.3390200       119.85019
       1.3394700       115.71475
       1.3399100       118.99235
       1.3403600       122.57549
       1.3408099       121.68306
       1.3412499       121.70620
       1.3417000       122.64597
       1.3421500       119.55903
       1.3425900       123.25942
       1.3430400       122.39696
       1.3434900       122.50951
       1.3439400       124.19262
       1.3443900       123.73530
       1.3448400       124.03928
       1.3452801       123.08958
       1.3457299       123.00862
       1.3461800       122.44146
       1.3466300       124.21948
       1.3470800       124.56541
       1.3475300       124.99625
       1.3479800       123.65961
       1.3484300       125.09730
       1.3488700       124.82711
       1.3493201       125.02816
       1.3497699       122.27295
       1.3502200       122.26591
       1.3506700       124.88958
       1.3511200       126.39252
       1.3515700       126.25379
       1.3520300       126.08479
       1.3524801       125.34112
       1.3529299       125.87527
       1.3533800       127.14992
       1.3538300       126.94920
       1.3542800       127.02079
       1.3547300       127.07542
       1.3551800       123.74936
       1.3556401       124.38622
       1.3560899       126.16558
       1.3565400       126.93191
       1.3569900       122.97848
       1.3574400       127.10741
       1.3579000       127.34202
       1.3583500       127.98889
       1.3588001       128.58084
       1.3592499       124.97775
       1.3597100       127.79266
       1.3601600       128.68294
       1.3606100       120.75746
       1.3610700       129.05886
       1.3615201       129.45302
       1.3619699       129.48623
       1.3624300       129.15770
       1.3628800       123.64229
       1.3633400       128.65395
       1.3637900       129.88065
       1.3642499       130.01758
       1.3647000       125.43292
       1.3651600       129.59737
       1.3656100       129.13259
       1.3660700       129.98511
       1.3665200       131.08574
       1.3669800       125.81274
       1.3674300       131.20303
       1.3678900       131.38629
       1.3683500       130.35631
       1.3688000       125.58378
       1.3692600       130.86772
       1.3697100       130.66184
       1.3701700       129.02607
       1.3706300       131.05117
       1.3710800       130.92332
       1.3715400       130.47174
       1.3720000       132.90959
       1.3724600       129.37973
       1.3729100       130.39442
       1.3733701       130.24752
       1.3738300       128.97105
       1.3742900       133.18645
       1.3747400       131.04977
       1.3752000       133.56712
       1.3756599       132.28370
       1.3761200       128.87588
       1.3765800       133.18402
       1.3770400       133.26848
       1.3775001       134.00919
       1.3779500       131.45540
       1.3784100       134.92077
       1.3788700       134.73134
       1.3793300       133.09910
       1.3797899       135.19343
       1.3802500       134.28343
       1.3807100       135.73846
       1.3811700       135.20234
       1.3816299       135.37852
       1.3820900       132.88678
       1.3825600       135.55718
       1.3830200       133.06705
       1.3834800       135.37918
       1.3839400       136.34401
       1.3844000       136.93396
       1.3848600       136.41678
       1.3853199       128.71878
       1.3857800       136.91640
       1.3862500       136.77746
       1.3867100       130.11301
       1.3871700       136.76927
       1.3876300       136.75982
       1.3881000       136.19141
       1.3885601       138.28829
       1.3890200       137.14573
       1.3894800       138.37800
       1.3899500       131.41862
       1.3904099       138.60578
       1.3908700       137.00572
       1.3913400       136.84713
       1.3918000       137.99738
       1.3922600       137.76637
       1.3927300       138.19433
       1.3931900       138.78450
       1.3936599       138.90673
       1.3941200       138.47640
       1.3945900       138.54414
       1.3950500       138.66528
       1.3955200       135.87767
       1.3959800       140.37761
       1.3964500       138.69862
       1.3969100       138.51128
       1.3973800       139.86163
       1.3978400       139.48861
       1.3983099       138.25423
       1.3987800       139.45907
       1.3992400       139.81088
       1.3997101       136.98854
       1.4001800       134.98602
       1.4006400       137.82722
       1.4011101       136.81167
       1.4015800       141.53228
       1.4020400       142.25634
       1.4025100       141.60727
       1.4029800       138.65034
       1.4034500       141.53686
       1.4039100       142.74090
       1.4043800       138.01942
       1.4048500       143.05825
       1.4053200       143.11945
       1.4057900       143.28784
       1.4062600       140.49880
       1.4067200       136.21415
       1.4071900       137.53903
       1.4076600       139.24484
       1.4081300       142.29475
       1.4086000       138.21388
       1.4090700       142.23546
       1.4095401       141.43784
       1.4100100       140.79686
       1.4104800       142.35997
       1.4109499       141.97660
       1.4114200       140.57184
       1.4118900       139.19138
       1.4123600       137.83535
       1.4128300       135.44611
       1.4133000       130.74191
       1.4137700       143.18030
       1.4142500       137.95747
       1.4147201       143.99383
       1.4151900       138.95370
       1.4156600       145.50883
       1.4161299       135.40648
       1.4166000       143.24107
       1.4170800       141.71424
       1.4175500       144.70722
       1.4180200       144.09987
       1.4184901       136.31393
       1.4189700       142.93232
       1.4194400       137.97910
       1.4199100       144.22847
       1.4203900       137.61226
       1.4208601       139.00910
       1.4213300       145.56896
       1.4218100       143.59231
       1.4222800       142.33476
       1.4227600       138.79197
       1.4232301       142.60424
       1.4237000       144.68175
       1.4241800       131.38524
       1.4246500       148.12453
       1.4251300       141.65114
       1.4256001       138.87774
       1.4260800       141.95160
       1.4265500       140.78137
       1.4270300       148.10123
       1.4275100       133.22365
       1.4279799       149.02341
       1.4284600       145.84145
       1.4289300       140.59599
       1.4294100       138.35163
       1.4298900       144.03166
       1.4303600       141.82669
       1.4308400       150.22677
       1.4313200       136.97863
       1.4317900       146.38325
       1.4322701       146.72551
       1.4327500       146.75001
       1.4332300       149.56211
       1.4337000       148.12294
       1.4341800       146.89426
       1.4346600       147.56322
       1.4351400       150.46038
       1.4356200       142.58716
       1.4360900       151.32487
       1.4365700       149.84774
       1.4370500       154.16447
       1.4375300       144.07994
       1.4380100       147.95064
       1.4384900       153.40590
       1.4389700       151.53835
       1.4394500       150.08655
       1.4399300       147.48997
       1.4404100       136.37405
       1.4408900       148.06879
       1.4413700       155.60942
       1.4418499       145.95121
       1.4423300       149.12798
       1.4428101       150.84985
       1.4432900       148.99237
       1.4437701       149.26955
       1.4442500       144.58480
       1.4447401       146.17602
       1.4452200       156.20156
       1.4457000       156.65873
       1.4461800       146.15687
       1.4466600       145.17581
       1.4471400       153.02255
       1.4476300       157.76979
       1.4481100       151.13655
       1.4485900       150.18541
       1.4490700       149.93248
       1.4495600       153.33449
       1.4500400       153.55591
       1.4505301       146.86038
       1.4510100       152.89035
       1.4514900       144.70478
       1.4519700       158.45938
       1.4524601       157.85699
       1.4529400       147.72254
       1.4534301       149.33388
       1.4539100       153.28602
       1.4543999       151.86364
       1.4548800       146.38988
       1.4553699       151.89435
       1.4558500       147.57907
       1.4563400       154.92842
       1.4568200       150.90053
       1.4573100       154.63351
       1.4577900       152.90819
       1.4582800       155.41638
       1.4587700       157.63538
       1.4592500       155.12703
       1.4597400       150.61645
       1.4602300       152.22145
       1.4607100       146.95398
       1.4612000       154.94790
       1.4616899       157.50638
       1.4621700       152.72261
       1.4626600       157.59338
       1.4631500       152.14529
       1.4636400       155.88723
       1.4641200       157.10509
       1.4646100       157.24883
       1.4651000       153.55994
       1.4655900       142.69734
       1.4660800       149.16417
       1.4665700       161.12737
       1.4670500       156.32695
       1.4675400       159.91143
       1.4680300       156.63363
       1.4685200       150.74396
       1.4690100       162.11547
       1.4694999       155.58371
       1.4699900       158.82378
       1.4704800       151.92225
       1.4709700       159.37976
       1.4714600       153.19827
       1.4719501       155.65613
       1.4724400       153.50009
       1.4729300       161.80702
       1.4734200       159.99100
       1.4739100       159.93245
       1.4744101       153.13311
       1.4749000       159.16916
       1.4753900       154.22486
       1.4758800       156.33557
       1.4763700       166.00828
       1.4768699       159.67252
       1.4773600       154.16268
       1.4778500       161.72490
       1.4783400       157.78715
       1.4788400       161.51613
       1.4793299       163.77871
       1.4798200       162.71756
       1.4803200       163.02901
       1.4808100       157.92503
       1.4813000       157.67981
       1.4818000       161.66186
       1.4822900       166.50882
       1.4827800       163.79212
       1.4832799       158.58923
       1.4837700       159.67675
       1.4842700       161.08816
       1.4847600       164.00795
       1.4852600       160.51738
       1.4857500       167.90407
       1.4862500       163.87583
       1.4867400       158.71798
       1.4872400       160.74564
       1.4877400       158.18683
       1.4882300       126.79399
       1.4887300       163.58623
       1.4892200       167.22749
       1.4897200       169.23846
       1.4902101       161.23970
       1.4907100       158.23561
       1.4912100       163.39361
       1.4917099       160.36730
       1.4922000       170.32862
       1.4927000       171.55893
       1.4931999       166.41927
       1.4937000       167.48378
       1.4941900       164.16829
       1.4946899       172.92669
       1.4951900       162.22142
       1.4956900       171.73032
       1.4961900       153.67261
       1.4966900       172.84551
       1.4971800       166.62866
       1.4976799       167.50457
       1.4981800       168.80451
       1.4986800       161.92771
       1.4991800       168.67343
       1.4996800       175.26748
       1.5001700       169.80882
       1.5006800       168.86516
       1.5011801       170.57348
       1.5016800       166.99205
       1.5021800       164.70628
       1.5026799       143.59313
       1.5031900       159.23834
       1.5036900       170.41289
       1.5041900       158.23970
       1.5046901       160.82013
       1.5051900       151.97899
       1.5056900       161.61613
       1.5061899       172.47321
       1.5067000       169.06006
       1.5072000       173.82417
       1.5077000       175.61850
       1.5082000       163.02073
       1.5087100       177.88386
       1.5092100       175.32481
       1.5097100       168.65102
       1.5102201       164.67311
       1.5107200       175.23501
       1.5112200       173.88192
       1.5117300       177.32440
       1.5122300       166.53748
       1.5127300       168.09082
       1.5132400       175.05905
       1.5137399       171.03301
       1.5142500       169.95730
       1.5147500       171.86009
       1.5152600       178.29092
       1.5157599       174.82061
       1.5162700       168.82466
       1.5167700       171.36835
       1.5172800       174.14120
       1.5177799       180.19387
       1.5182900       171.72718
       1.5188000       172.33686
       1.5193000       175.30874
       1.5198100       175.60731
       1.5203201       171.70868
       1.5208200       179.96728
       1.5213300       169.15664
       1.5218400       179.47003
       1.5223401       163.20898
       1.5228500       178.12976
       1.5233600       171.52110
       1.5238600       182.35790
       1.5243700       176.19002
       1.5248801       174.08177
       1.5253900       177.50107
       1.5259000       180.20279
       1.5264100       176.20661
       1.5269200       172.27762
       1.5274200       182.64372
       1.5279300       183.53893
       1.5284400       177.93079
       1.5289500       176.78168
       1.5294600       181.41545
       1.5299700       159.22202
       1.5304800       182.69390
       1.5309900       179.83396
       1.5315000       184.74670
       1.5320100       174.88545
       1.5325201       183.96148
       1.5330300       181.58494
       1.5335500       184.67206
       1.5340600       172.97890
       1.5345700       177.13275
       1.5350800       182.60299
       1.5355901       180.87532
       1.5361000       184.25148
       1.5366200       181.42176
       1.5371300       188.66522
       1.5376400       184.58398
       1.5381500       175.14269
       1.5386600       183.49805
       1.5391800       179.84696
       1.5396900       179.29201
       1.5402000       174.77537
       1.5407200       185.22421
       1.5412300       184.71736
       1.5417399       187.72335
       1.5422601       183.98518
       1.5427700       179.30699
       1.5432900       185.40951
       1.5438000       182.43045
       1.5443200       188.27879
       1.5448300       186.96204
       1.5453500       187.98980
       1.5458601       188.91655
       1.5463800       185.23804
       1.5468900       186.29654
       1.5474100       187.87904
       1.5479200       185.33679
       1.5484400       184.74906
       1.5489600       188.64426
       1.5494699       185.36753
       1.5499901       182.24737
       1.5505100       183.46123
       1.5510200       189.27669
       1.5515400       185.07979
       1.5520600       190.91538
       1.5525700       189.75308
       1.5530900       190.53390
       1.5536100       179.71106
       1.5541300       184.18786
       1.5546401       179.49709
       1.5551600       192.60067
       1.5556800       184.23709
       1.5562000       175.12137
       1.5567200       187.49533
       1.5572400       189.08489
       1.5577600       185.21718
       1.5582700       188.28603
       1.5587900       188.72716
       1.5593100       185.02782
       1.5598300       181.12691
       1.5603499       193.88781
       1.5608701       190.46556
       1.5614001       191.13055
       1.5619200       191.56661
       1.5624400       181.59866
       1.5629600       195.64405
       1.5634800       180.05603
       1.5640000       194.37335
       1.5645200       192.16968
       1.5650400       188.26227
       1.5655600       191.09364
       1.5660900       193.20580
       1.5666100       185.85482
       1.5671300       194.24300
       1.5676500       184.72122
       1.5681700       187.40768
       1.5687000       189.90636
       1.5692199       189.20265
       1.5697401       180.90095
       1.5702699       188.39842
       1.5707901       193.44652
       1.5713100       193.07782
       1.5718400       190.41775
       1.5723600       197.25313
       1.5728900       185.62147
       1.5734100       195.20751
       1.5739400       198.18996
       1.5744600       179.31446
       1.5749800       193.02941
       1.5755100       177.40303
       1.5760400       197.74071
       1.5765600       197.51105
       1.5770900       160.01024
       1.5776100       179.47240
       1.5781400       191.57909
       1.5786600       197.75987
       1.5791900       188.26523
       1.5797100       200.88726
       1.5802400       191.89821
       1.5807700       198.88114
       1.5813000       197.05294
       1.5818200       200.03064
       1.5823500       181.13832
       1.5828800       190.42456
       1.5834000       200.94749
       1.5839300       182.16601
       1.5844600       200.72173
       1.5849900       198.82962
       1.5855200       197.36025
       1.5860400       198.36358
       1.5865700       190.57511
       1.5871000       190.94484
       1.5876300       196.91205
       1.5881600       185.81733
       1.5886900       185.88682
       1.5892200       168.25928
       1.5897501       179.58796
       1.5902801       188.33456
       1.5908099       181.65366
       1.5913399       190.54976
       1.5918700       196.40283
       1.5924000       194.09206
       1.5929300       205.69772
       1.5934600       194.46955
       1.5939900       204.34074
       1.5945300       194.69522
       1.5950600       206.36990
       1.5955900       203.24827
       1.5961200       191.48254
       1.5966500       187.42938
       1.5971900       197.65578
       1.5977200       205.80163
       1.5982500       193.12685
       1.5987800       196.48201
       1.5993201       201.01524
       1.5998501       204.03825
       1.6003799       204.60723
       1.6009200       188.02745
       1.6014500       196.72152
       1.6019800       201.63792
       1.6025200       200.96558
       1.6030500       205.97353
       1.6035900       207.55490
       1.6041200       199.55873
       1.6046500       191.04705
       1.6051900       205.23996
       1.6057200       205.17745
       1.6062599       194.74950
       1.6068000       204.65700
       1.6073300       201.00733
       1.6078700       200.37778
       1.6084000       204.46436
       1.6089400       206.45720
       1.6094700       204.55932
       1.6100100       191.98058
       1.6105500       191.62088
       1.6110801       200.41260
       1.6116199       198.70375
       1.6121600       200.27478
       1.6127000       203.32264
       1.6132300       202.84442
       1.6137700       207.91330
       1.6143100       200.09171
       1.6148500       211.29456
       1.6153899       200.39440
       1.6159199       186.58290
       1.6164600       209.99558
       1.6170000       196.88275
       1.6175400       211.58729
       1.6180800       205.41958
       1.6186200       202.96992
       1.6191601       191.80648
       1.6197000       200.02875
       1.6202400       192.62628
       1.6207800       197.20297
       1.6213200       199.42402
       1.6218600       199.47853
       1.6224000       210.55021
       1.6229399       200.41249
       1.6234800       204.25513
       1.6240200       204.11194
       1.6245600       201.18324
       1.6251100       208.74785
       1.6256500       209.69382
       1.6261899       207.94551
       1.6267300       211.80725
       1.6272700       211.38088
       1.6278200       212.47812
       1.6283600       213.06084
       1.6289001       210.69731
       1.6294399       212.32120
       1.6299900       207.85543
       1.6305300       211.66105
       1.6310700       214.31766
       1.6316200       207.06861
       1.6321599       206.30140
       1.6327100       208.51887
       1.6332500       216.42585
       1.6338000       201.53103
       1.6343400       215.60684
       1.6348799       213.21362
       1.6354300       213.74294
       1.6359700       211.30515
       1.6365200       216.51297
       1.6370699       191.47415
       1.6376100       213.31963
       1.6381600       212.32821
       1.6387000       185.09345
       1.6392500       208.70008
       1.6398000       200.39251
       1.6403400       191.01343
       1.6408900       192.65481
       1.6414400       194.69013
       1.6419801       198.38887
       1.6425300       209.78262
       1.6430800       213.26169
       1.6436300       211.78939
       1.6441700       203.65706
       1.6447200       198.96473
       1.6452700       211.71189
       1.6458200       203.19000
       1.6463701       217.79578
       1.6469200       211.40842
       1.6474600       208.58439
       1.6480100       210.03051
       1.6485600       213.02468
       1.6491100       204.35867
       1.6496600       207.93355
       1.6502100       216.39919
       1.6507601       217.19306
       1.6513100       213.61866
       1.6518600       216.32175
       1.6524100       209.81564
       1.6529599       209.67045
       1.6535100       217.85665
       1.6540700       205.05138
       1.6546201       209.89496
       1.6551700       208.48012
       1.6557200       214.53160
       1.6562700       210.81672
       1.6568201       210.35136
       1.6573800       211.82112
       1.6579300       217.45841
       1.6584800       209.58790
       1.6590300       211.28176
       1.6595900       213.19460
       1.6601400       215.46175
       1.6606899       218.19966
       1.6612500       214.29507
       1.6618000       207.19389
       1.6623600       207.00893
       1.6629100       211.39685
       1.6634600       204.57086
       1.6640199       213.28799
       1.6645700       211.22617
       1.6651300       202.51459
       1.6656801       205.96666
       1.6662400       213.80814
       1.6667900       205.84529
       1.6673501       214.61581
       1.6679100       211.11544
       1.6684600       206.28551
       1.6690201       214.09395
       1.6695700       217.14231
       1.6701300       218.52417
       1.6706899       216.25464
       1.6712400       211.73512
       1.6718000       213.70912
       1.6723599       200.05309
       1.6729200       212.28766
       1.6734700       215.02266
       1.6740299       216.83525
       1.6745900       217.49739
       1.6751500       215.00005
       1.6757100       195.48629
       1.6762600       215.53332
       1.6768200       206.33038
       1.6773800       219.65842
       1.6779400       216.27507
       1.6785001       214.12313
       1.6790600       213.97149
       1.6796200       209.88410
       1.6801800       208.23747
       1.6807400       202.16310
       1.6813000       197.91395
       1.6818600       203.65856
       1.6824200       202.83267
       1.6829799       209.73830
       1.6835400       211.70477
       1.6841000       210.82083
       1.6846600       211.70352
       1.6852300       216.92682
       1.6857899       216.61879
       1.6863500       205.00379
       1.6869100       211.14980
       1.6874700       213.84919
       1.6880400       212.09229
       1.6885999       214.98271
       1.6891600       214.85579
       1.6897300       207.04591
       1.6902900       216.53110
       1.6908500       208.45507
       1.6914200       218.12259
       1.6919800       217.20383
       1.6925400       220.08766
       1.6931100       213.55945
       1.6936700       217.34675
       1.6942400       219.64880
       1.6948000       219.66424
       1.6953700       217.54578
       1.6959300       218.37990
       1.6964999       216.15989
       1.6970600       217.51477
       1.6976300       210.89731
       1.6981900       215.78892
       1.6987600       212.33991
       1.6993300       215.80483
       1.6998900       204.26342
       1.7004600       214.07227
       1.7010300       205.52426
       1.7015899       206.18085
       1.7021600       216.39383
       1.7027299       213.64216
       1.7032900       216.09175
       1.7038600       215.71244
       1.7044300       219.24693
       1.7050000       217.33890
       1.7055700       216.51965
       1.7061400       218.92139
       1.7067000       209.41160
       1.7072700       211.40733
       1.7078400       212.95545
       1.7084100       217.54014
       1.7089800       214.37425
       1.7095500       215.93165
       1.7101200       215.56577
       1.7106900       213.67955
       1.7112600       183.49026
       1.7118300       215.90040
       1.7124000       213.75810
       1.7129700       218.22530
       1.7135400       216.64033
       1.7141200       216.06927
       1.7146900       220.48642
       1.7152600       220.46767
       1.7158300       216.24423
       1.7164000       210.80749
       1.7169700       219.93109
       1.7175500       217.78783
       1.7181200       218.10591
       1.7186900       217.16817
       1.7192600       219.39098
       1.7198400       215.96479
       1.7204100       217.70117
       1.7209899       209.26142
       1.7215600       219.37568
       1.7221299       219.21506
       1.7227100       217.10383
       1.7232800       203.53126
       1.7238600       213.34883
       1.7244300       217.02571
       1.7250000       216.77934
       1.7255800       216.13820
       1.7261600       217.14383
       1.7267300       217.58598
       1.7273099       216.64163
       1.7278800       214.07488
       1.7284600       211.69616
       1.7290300       215.14180
       1.7296100       219.42375
       1.7301900       216.55315
       1.7307600       209.07189
       1.7313401       214.98775
       1.7319200       215.52839
       1.7324899       218.25955
       1.7330700       192.90277
       1.7336500       213.24783
       1.7342300       203.53485
       1.7348100       215.24747
       1.7353801       210.40321
       1.7359600       206.60275
       1.7365400       194.89532
       1.7371200       202.86835
       1.7377000       209.91182
       1.7382801       211.08512
       1.7388600       213.47329
       1.7394400       210.88856
       1.7400200       217.07824
       1.7406000       213.76694
       1.7411799       201.20184
       1.7417600       217.10512
       1.7423400       211.77205
       1.7429200       214.30852
       1.7435000       215.96295
       1.7440799       217.29408
       1.7446600       220.59547
       1.7452400       213.83710
       1.7458200       213.40386
       1.7464100       216.81025
       1.7469900       203.10899
       1.7475700       216.18745
       1.7481600       218.42660
       1.7487400       220.39869
       1.7493200       220.27628
       1.7499000       215.28399
       1.7504900       214.03649
       1.7510700       213.45686
       1.7516500       217.62678
       1.7522399       218.16546
       1.7528200       216.99939
       1.7534100       218.32437
       1.7539901       217.16097
       1.7545700       216.28871
       1.7551600       214.55203
       1.7557400       214.99621
       1.7563300       218.32758
       1.7569200       215.86192
       1.7575001       219.25261
       1.7580900       219.21131
       1.7586700       214.77363
       1.7592601       218.77868
       1.7598500       218.63831
       1.7604300       215.45870
       1.7610199       212.21138
       1.7616100       215.55568
       1.7621900       205.76293
       1.7627800       212.83436
       1.7633700       221.28093
       1.7639600       214.77556
       1.7645400       209.72527
       1.7651300       217.47491
       1.7657200       221.21186
       1.7663100       215.65857
       1.7668999       214.76620
       1.7674900       217.16872
       1.7680800       215.82678
       1.7686700       208.39775
       1.7692600       218.64813
       1.7698500       214.13672
       1.7704300       218.20821
       1.7710299       212.96820
       1.7716200       211.49047
       1.7722000       215.17531
       1.7728000       207.41996
       1.7733901       215.07014
       1.7739800       214.75259
       1.7745700       217.37331
       1.7751600       212.88827
       1.7757500       213.70278
       1.7763500       216.14393
       1.7769400       212.91507
       1.7775300       208.83720
       1.7781200       216.61470
       1.7787200       213.26856
       1.7793100       214.51544
       1.7799000       217.81969
       1.7805001       216.27846
       1.7810900       219.01680
       1.7816800       213.93031
       1.7822700       217.98095
       1.7828701       212.63347
       1.7834600       218.07104
       1.7840600       212.77281
       1.7846500       213.10005
       1.7852499       211.53795
       1.7858400       214.89759
       1.7864400       213.74162
       1.7870300       217.04135
       1.7876300       215.65364
       1.7882299       219.61978
       1.7888200       219.06419
       1.7894200       219.43686
       1.7900100       219.78088
       1.7906100       218.74039
       1.7912101       218.57365
       1.7918000       217.42857
       1.7924000       218.41549
       1.7930000       215.52500
       1.7936000       209.05673
       1.7941999       210.06538
       1.7947900       217.87315
       1.7953900       219.81181
       1.7959900       219.25447
       1.7965900       220.37156
       1.7971900       214.66431
       1.7977901       217.96074
       1.7983800       216.88766
       1.7989800       216.00238
       1.7995800       218.06557
       1.8001800       218.64834
       1.8007801       212.76865
       1.8013800       217.46034
       1.8019800       215.59139
       1.8025900       213.65823
       1.8031900       208.20404
       1.8037900       216.35946
       1.8043900       216.17100
       1.8049901       217.78858
       1.8055900       210.36773
       1.8062000       219.55748
       1.8068000       213.98756
       1.8074000       217.43779
       1.8080000       216.53185
       1.8085999       215.72126
       1.8092099       218.25344
       1.8098100       214.55812
       1.8104100       209.65777
       1.8110200       213.48988
       1.8116200       214.56160
       1.8122200       213.67082
       1.8128300       218.95026
       1.8134300       217.51091
       1.8140399       217.92302
       1.8146400       216.21175
       1.8152500       217.89372
       1.8158500       204.60941
       1.8164600       211.70714
       1.8170600       208.68944
       1.8176700       193.16798
       1.8182700       199.12638
       1.8188800       209.79534
       1.8194900       212.71963
       1.8200901       215.80403
       1.8207000       217.96999
       1.8213100       220.08068
       1.8219100       217.97411
       1.8225200       214.71161
       1.8231300       210.82836
       1.8237400       215.83003
       1.8243400       218.10400
       1.8249500       220.40474
       1.8255600       216.41489
       1.8261700       219.56285
       1.8267800       219.16213
       1.8273900       219.37484
       1.8279999       215.43191
       1.8286099       214.43862
       1.8292100       211.44870
       1.8298200       215.94222
       1.8304300       213.44422
       1.8310400       216.57060
       1.8316500       219.81333
       1.8322700       213.42708
       1.8328800       217.93513
       1.8334900       221.03333
       1.8341000       219.83411
       1.8347100       214.00983
       1.8353200       216.12577
       1.8359300       215.26569
       1.8365400       214.40248
       1.8371600       213.55307
       1.8377700       207.91212
       1.8383800       215.47127
       1.8390000       220.34849
       1.8396100       213.78110
       1.8402200       210.50144
       1.8408300       219.95468
       1.8414500       213.94722
       1.8420600       206.12083
       1.8426700       202.70530
       1.8432900       214.26209
       1.8439000       215.86022
       1.8445200       216.83930
       1.8451300       210.67308
       1.8457500       219.92904
       1.8463600       219.94511
       1.8469800       201.37539
       1.8475900       213.52375
       1.8482100       216.35973
       1.8488300       219.20645
       1.8494400       216.20786
       1.8500600       215.59014
       1.8506800       219.62314
       1.8512900       219.03024
       1.8519100       215.69994
       1.8525300       211.67005
       1.8531500       204.51916
       1.8537600       217.90815
       1.8543800       219.17690
       1.8550000       216.94250
       1.8556200       210.27606
       1.8562400       206.26947
       1.8568500       219.11481
       1.8574700       219.28786
       1.8580900       214.27350
       1.8587101       206.48536
       1.8593301       219.75601
       1.8599499       216.86946
       1.8605700       218.00304
       1.8611900       216.81761
       1.8618100       215.27142
       1.8624300       216.74484
       1.8630500       212.57926
       1.8636700       216.75829
       1.8643000       214.16138
       1.8649200       219.89997
       1.8655400       216.30810
       1.8661600       208.12913
       1.8667800       214.32937
       1.8674099       218.75586
       1.8680300       214.90284
       1.8686500       216.42471
       1.8692700       218.77825
       1.8699000       215.47322
       1.8705200       217.45923
       1.8711400       218.68861
       1.8717700       213.23962
       1.8723900       216.23907
       1.8730201       204.40247
       1.8736399       215.54534
       1.8742599       209.76148
       1.8748900       203.16772
       1.8755100       175.83018
       1.8761400       202.36472
       1.8767600       209.56024
       1.8773900       213.84546
       1.8780200       205.30264
       1.8786401       216.22330
       1.8792700       215.58575
       1.8798900       214.96353
       1.8805200       217.73019
       1.8811500       218.14732
       1.8817700       218.68575
       1.8824000       210.49975
       1.8830301       218.56267
       1.8836600       217.56216
       1.8842800       217.91490
       1.8849100       214.03265
       1.8855400       215.82956
       1.8861700       203.51321
       1.8868001       214.98773
       1.8874300       216.49749
       1.8880600       209.26739
       1.8886900       211.37831
       1.8893100       206.95402
       1.8899400       212.42296
       1.8905700       204.62207
       1.8911999       210.86152
       1.8918300       211.64361
       1.8924700       207.17939
       1.8931000       210.47778
       1.8937300       211.36201
       1.8943599       214.37673
       1.8949900       207.71479
       1.8956200       215.81862
       1.8962600       208.76842
       1.8968900       210.49410
       1.8975199       209.05002
       1.8981500       216.21875
       1.8987800       217.42023
       1.8994200       207.78104
       1.9000500       218.81077
       1.9006799       214.84038
       1.9013200       215.19990
       1.9019500       218.29201
       1.9025900       216.18777
       1.9032201       216.97694
       1.9038500       211.02282
       1.9044900       215.14378
       1.9051200       210.52689
       1.9057600       215.47116
       1.9063900       215.90219
       1.9070300       218.46685
       1.9076700       218.15168
       1.9083000       214.17338
       1.9089400       209.67118
       1.9095700       218.68686
       1.9102100       216.67115
       1.9108500       215.49595
       1.9114799       216.91093
       1.9121200       207.71145
       1.9127600       211.74153
       1.9133900       216.83236
       1.9140300       216.91996
       1.9146700       213.90819
       1.9153100       216.91159
       1.9159499       213.43465
       1.9165900       215.73792
       1.9172300       217.64046
       1.9178600       214.37039
       1.9184999       217.85933
       1.9191400       217.99100
       1.9197800       202.99397
       1.9204201       216.51751
       1.9210600       214.37925
       1.9217000       211.36399
       1.9223400       213.48829
       1.9229800       217.74351
       1.9236300       216.85916
       1.9242700       216.59965
       1.9249099       215.49238
       1.9255500       216.86171
       1.9261900       208.03692
       1.9268301       212.56292
       1.9274700       214.09152
       1.9281200       216.02193
       1.9287601       208.28172
       1.9294000       215.81085
       1.9300500       216.43601
       1.9306901       213.94315
       1.9313300       200.20773
       1.9319800       216.44208
       1.9326200       215.69939
       1.9332700       216.05425
       1.9339100       209.58045
       1.9345599       208.68333
       1.9352000       214.48144
       1.9358500       215.98986
       1.9364901       218.40142
       1.9371400       216.32996
       1.9377800       218.07118
       1.9384300       215.69760
       1.9390700       210.17702
       1.9397200       211.36322
       1.9403700       216.63843
       1.9410100       212.46244
       1.9416600       212.76768
       1.9423100       214.72415
       1.9429500       208.35118
       1.9436001       198.22737
       1.9442500       206.19301
       1.9449000       190.60678
       1.9455500       186.58222
       1.9461900       207.26623
       1.9468400       210.15495
       1.9474900       206.03371
       1.9481400       213.17939
       1.9487900       208.41957
       1.9494400       212.69681
       1.9500901       207.73475
       1.9507400       213.07732
       1.9513900       185.88852
       1.9520400       215.64762
       1.9526900       216.46021
       1.9533401       216.79332
       1.9539900       212.30768
       1.9546500       210.29870
       1.9553000       216.10227
       1.9559500       216.51863
       1.9566000       216.63172
       1.9572500       215.74880
       1.9579099       215.77494
       1.9585600       211.10198
       1.9592100       212.01028
       1.9598600       210.88627
       1.9605200       209.76927
       1.9611700       215.40672
       1.9618200       205.98910
       1.9624799       216.36371
       1.9631300       204.57734
       1.9637901       205.21175
       1.9644400       212.20752
       1.9651000       216.33632
       1.9657500       216.15529
       1.9664100       215.50509
       1.9670600       215.97017
       1.9677200       214.66581
       1.9683700       215.09946
       1.9690300       213.67812
       1.9696900       215.64355
       1.9703400       215.03594
       1.9710000       215.49536
       1.9716600       213.49668
       1.9723099       212.12495
       1.9729700       197.51187
       1.9736300       208.15194
       1.9742900       210.70869
       1.9749399       213.09800
       1.9756000       213.09996
       1.9762599       214.48135
       1.9769200       213.39811
       1.9775800       213.62475
       1.9782400       188.13275
       1.9789000       213.67039
       1.9795600       206.81678
       1.9802200       214.90500
       1.9808800       212.40157
       1.9815400       214.95437
       1.9822000       210.23881
       1.9828600       214.93957
       1.9835200       214.54681
       1.9841800       216.24552
       1.9848400       214.34109
       1.9855000       205.79650
       1.9861701       201.51689
       1.9868300       199.93086
       1.9874901       213.10469
       1.9881500       212.34959
       1.9888200       211.19557
       1.9894800       214.94059
       1.9901400       214.37864
       1.9908100       212.75570
       1.9914700       213.52582
       1.9921300       206.33245
       1.9928000       211.69227
       1.9934601       206.67812
       1.9941300       205.46530
       1.9947900       212.84470
       1.9954500       209.48195
       1.9961200       213.25199
       1.9967901       205.29143
       1.9974500       207.23646
       1.9981200       205.04595
       1.9987800       213.37795
       1.9994500       213.07130
       2.0000899       214.15454
       2.0007801       213.04625
       2.0014501       211.73187
       2.0021200       214.91652
       2.0027800       206.59648
       2.0034499       210.00633
       2.0041201       208.60948
       2.0047901       213.67712
       2.0054600       208.18083
       2.0061200       205.60395
       2.0067899       213.64727
       2.0074601       208.43986
       2.0081301       213.66023
       2.0088000       211.27421
       2.0094700       207.92132
       2.0101399       212.13311
       2.0108099       213.48281
       2.0114801       211.84505
       2.0121500       213.21099
       2.0128200       213.39983
       2.0134900       211.40945
       2.0141599       207.53801
       2.0148301       211.76344
       2.0155101       211.39231
       2.0161800       212.63915
       2.0168500       212.49942
       2.0175200       211.82937
       2.0181899       210.91634
       2.0188701       211.25105
       2.0195401       209.74814
       2.0202100       209.87037
       2.0208900       205.80498
       2.0215600       203.81988
       2.0222299       210.35639
       2.0229101       212.16599
       2.0235801       206.59980
       2.0242600       207.24400
       2.0249300       210.83245
       2.0256100       210.80622
       2.0262799       212.03972
       2.0269599       206.99459
       2.0276301       210.42396
       2.0283101       209.73643
       2.0289800       205.91564
       2.0296600       208.77253
       2.0303400       204.12762
       2.0310199       205.25296
       2.0316899       212.55714
       2.0323701       210.90134
       2.0330501       210.96338
       2.0337200       209.25432
       2.0344000       209.43856
       2.0350800       202.25401
       2.0357599       206.01705
       2.0364399       211.38113
       2.0371201       208.78192
       2.0377901       205.94296
       2.0384700       199.60487
       2.0391500       211.45313
       2.0398300       211.51174
       2.0405099       209.15543
       2.0411899       208.41314
       2.0418701       202.72146
       2.0425501       210.34727
       2.0432401       209.31237
       2.0439200       212.77327
       2.0446000       209.95726
       2.0452800       209.03750
       2.0459599       208.42889
       2.0466399       211.73639
       2.0473299       208.33854
       2.0480101       209.27589
       2.0486901       211.41663
       2.0493701       211.55238
       2.0500600       210.88122
       2.0507400       210.76633
       2.0514200       209.10373
       2.0521100       209.93376
       2.0527899       200.19662
       2.0534799       210.50214
       2.0541601       205.77507
       2.0548401       208.76417
       2.0555301       210.72994
       2.0562201       207.68377
       2.0569000       208.72242
       2.0575900       209.02195
       2.0582700       209.02404
       2.0589600       203.81511
       2.0596399       208.84142
       2.0603299       203.94436
       2.0610199       199.62944
       2.0617099       210.20918
       2.0623901       207.87718
       2.0630801       210.25972
       2.0637701       180.76346
       2.0644500       210.01085
       2.0651400       208.01885
       2.0658300       211.13269
       2.0665200       210.17533
       2.0672100       205.10206
       2.0678999       200.33267
       2.0685899       205.98321
       2.0692799       210.06381
       2.0699699       204.94424
       2.0706601       198.52251
       2.0713501       207.30478
       2.0720401       201.39914
       2.0727301       207.97253
       2.0734200       209.13555
       2.0741100       202.59886
       2.0748000       207.63443
       2.0754900       208.09722
       2.0761800       206.23297
       2.0768800       203.48308
       2.0775700       199.68146
       2.0782599       208.81447
       2.0789599       210.41841
       2.0796499       207.09307
       2.0803399       203.37955
       2.0810299       206.31268
       2.0817299       207.72534
       2.0824201       206.63178
       2.0831201       204.70212
       2.0838101       199.14524
       2.0845101       201.58160
       2.0852001       204.03750
       2.0858901       206.48120
       2.0865901       208.25340
       2.0872900       206.04989
       2.0879800       206.06453
       2.0886800       205.26455
       2.0893700       207.34428
       2.0900700       205.51212
       2.0907700       206.70237
       2.0914600       208.13174
       2.0921600       197.65837
       2.0928600       207.33578
       2.0935600       208.41429
       2.0942500       204.95358
       2.0949500       209.21632
       2.0956500       205.66072
       2.0963500       205.72863
       2.0970500       203.92948
       2.0977499       203.24470
       2.0984499       208.43243
       2.0991399       203.91936
       2.0998399       204.77896
       2.1005399       209.54758
       2.1012399       203.38664
       2.1019399       205.11272
       2.1026499       204.24885
       2.1033499       208.49943
       2.1040499       209.43031
       2.1047499       206.85001
       2.1054499       208.94552
       2.1061499       207.05572
       2.1068499       205.02702
       2.1075599       202.14723
       2.1082599       205.27343
       2.1089599       205.21807
       2.1096699       200.08705
       2.1103699       206.78599
       2.1110699       206.00355
       2.1117799       205.18191
       2.1124799       207.40626
       2.1131799       202.83792
       2.1138899       207.28916
       2.1145899       203.68797
       2.1152999       206.01505
       2.1159999       206.20217
       2.1167099       195.94136
       2.1174099       206.12846
       2.1181200       202.76762
       2.1188300       206.71223
       2.1195300       199.47496
       2.1202400       201.02190
       2.1209400       204.98372
       2.1216500       202.57041
       2.1223600       204.68094
       2.1230700       200.99035
       2.1237800       196.87502
       2.1244800       202.44038
       2.1251900       204.68521
       2.1259000       206.70512
       2.1266100       202.53647
       2.1273201       206.18592
       2.1280301       201.57155
       2.1287401       204.76839
       2.1294401       204.64498
       2.1301501       205.38880
       2.1308601       206.73119
       2.1315701       206.02932
       2.1322899       203.21948
       2.1329999       206.09794
       2.1337099       205.84866
       2.1344199       203.10931
       2.1351299       205.98332
       2.1358399       196.27159
       2.1365499       207.38933
       2.1372700       206.35609
       2.1379800       205.56635
       2.1386900       204.94499
       2.1394000       204.08312
       2.1401200       204.28781
       2.1408300       205.82789
       2.1415401       204.94567
       2.1422601       206.46663
       2.1429701       206.26613
       2.1436901       202.19419
       2.1443999       203.20175
       2.1451199       204.74182
       2.1458299       199.89513
       2.1465399       201.88295
       2.1472600       205.03981
       2.1479800       205.35721
       2.1486900       204.16362
       2.1494100       201.20290
       2.1501200       204.86126
       2.1508400       205.74040
       2.1515601       204.94115
       2.1522801       204.82474
       2.1529901       201.24866
       2.1537099       202.43749
       2.1544299       201.13227
       2.1551499       202.82960
       2.1558700       204.31895
       2.1565800       204.38118
       2.1573000       202.29344
       2.1580200       204.70466
       2.1587400       204.02103
       2.1594601       201.93923
       2.1601801       201.35405
       2.1609001       204.29260
       2.1616199       200.49749
       2.1623399       201.81145
       2.1630599       202.11950
       2.1637800       202.67746
       2.1645100       198.74825
       2.1652300       194.35071
       2.1659501       181.66295
       2.1666701       192.91061
       2.1673901       195.50902
       2.1681199       197.28072
       2.1688399       201.28784
       2.1695600       199.14324
       2.1702800       200.15991
       2.1710100       201.38943
       2.1717300       201.49430
       2.1724601       203.32227
       2.1731801       202.66559
       2.1738999       201.52935
       2.1746299       200.58484
       2.1753500       200.21978
       2.1760800       199.52821
       2.1768000       195.64664
       2.1775301       202.26153
       2.1782601       192.48137
       2.1789801       196.37139
       2.1797099       199.37441
       2.1804299       203.83936
       2.1811600       202.76462
       2.1818900       201.99689
       2.1826100       193.31506
       2.1833401       202.49581
       2.1840701       202.19978
       2.1847999       203.11234
       2.1855299       201.00303
       2.1862500       202.29326
       2.1869800       201.75165
       2.1877100       199.17617
       2.1884401       191.01075
       2.1891699       202.75562
       2.1898999       198.29403
       2.1906300       196.64088
       2.1913600       201.07538
       2.1920900       202.99844
       2.1928201       202.80498
       2.1935501       201.69874
       2.1942799       200.77053
       2.1950200       199.05019
       2.1957500       201.20161
       2.1964800       202.31176
       2.1972101       201.89884
       2.1979401       200.64275
       2.1986799       201.36511
       2.1994100       202.85330
       2.2001400       199.63005
       2.2008801       198.33180
       2.2016101       199.73040
       2.2023399       200.40769
       2.2030799       201.49669
       2.2038100       200.45906
       2.2045500       199.62883
       2.2052801       200.74723
       2.2060201       189.31587
       2.2067499       189.45130
       2.2074900       198.06484
       2.2082200       199.89156
       2.2089601       192.74786
       2.2097001       200.29551
       2.2104299       199.58271
       2.2111700       199.62633
       2.2119100       198.47258
       2.2126400       200.86226
       2.2133801       201.33484
       2.2141199       200.82162
       2.2148600       199.90688
       2.2156000       200.52145
       2.2163301       198.69257
       2.2170701       199.53612
       2.2178099       200.54661
       2.2185500       200.01986
       2.2192900       201.25507
       2.2200301       199.78599
       2.2207699       200.48333
       2.2215099       196.99773
       2.2222500       200.32067
       2.2229900       200.38951
       2.2237301       197.64837
       2.2244699       199.54314
       2.2252200       200.13600
       2.2259600       196.81268
       2.2267001       194.94116
       2.2274401       199.68856
       2.2281799       192.01935
       2.2289300       199.99559
       2.2296700       199.56453
       2.2304101       196.72968
       2.2311599       198.64959
       2.2319000       198.47142
       2.2326500       199.32900
       2.2333901       200.02984
       2.2341299       199.15740
       2.2348800       198.09495
       2.2356200       199.62778
       2.2363701       199.50694
       2.2371099       199.72562
       2.2378600       197.80626
       2.2386000       193.34699
       2.2393501       196.66218
       2.2400999       194.68099
       2.2408400       199.34836
       2.2415900       198.98055
       2.2423401       194.59199
       2.2430899       197.40227
       2.2438300       198.78393
       2.2445800       197.29863
       2.2453301       197.96779
       2.2460799       198.03147
       2.2468300       198.38428
       2.2475801       194.83436
       2.2483201       195.64323
       2.2490699       198.53367
       2.2498200       197.63946
       2.2505701       198.65918
       2.2513199       196.43905
       2.2520700       197.76431
       2.2528300       197.83190
       2.2535801       197.28181
       2.2543299       188.47134
       2.2550800       196.47119
       2.2558300       196.36248
       2.2565801       198.53997
       2.2573299       195.29790
       2.2580900       196.30389
       2.2588401       198.83039
       2.2595899       197.75803
       2.2603500       197.80472
       2.2611001       195.37586
       2.2618501       195.05523
       2.2626100       190.24094
       2.2633600       191.96369
       2.2641201       197.32679
       2.2648699       197.03844
       2.2656200       192.10829
       2.2663801       196.37969
       2.2671399       196.25330
       2.2678900       196.58363
       2.2686501       197.71067
       2.2693999       196.61704
       2.2701600       195.94811
       2.2709200       197.08237
       2.2716701       192.52583
       2.2724299       196.87918
       2.2731900       196.90600
       2.2739501       196.59588
       2.2746999       192.22584
       2.2754600       194.71965
       2.2762201       195.28954
       2.2769799       195.43154
       2.2777400       196.77573
       2.2785001       195.36702
       2.2792599       195.36111
       2.2800200       193.48509
       2.2807801       195.19819
       2.2815399       178.79862
       2.2823000       195.46884
       2.2830601       192.02069
       2.2838199       193.50916
       2.2845800       196.03313
       2.2853401       194.20954
       2.2860999       194.18907
       2.2868700       194.70802
       2.2876301       194.38771
       2.2883899       195.10808
       2.2891500       194.75086
       2.2899201       195.83799
       2.2906799       196.22966
       2.2914400       193.79323
       2.2922101       194.89736
       2.2929699       195.24106
       2.2937400       145.20599
       2.2945001       163.25540
       2.2952700       172.02832
       2.2960300       170.15096
       2.2967999       175.50677
       2.2975600       172.56474
       2.2983301       183.81592
       2.2990899       181.89917
       2.2998600       184.29117
       2.3006301       183.47100
       2.3013899       185.96687
       2.3021600       187.91606
       2.3029301       187.54173
       2.3037000       185.38920
       2.3044600       186.30669
       2.3052299       190.22035
       2.3060000       185.15682
       2.3067701       185.05662
       2.3075399       187.83062
       2.3083100       191.33110
       2.3090799       185.03397
       2.3098500       187.22258
       2.3106201       191.84821
       2.3113899       185.03707
       2.3121600       187.54289
       2.3129301       191.82705
       2.3137000       187.74244
       2.3144701       191.77807
       2.3152399       181.09575
       2.3160100       186.27315
       2.3167801       187.91173
       2.3175600       187.68513
       2.3183300       189.96814
       2.3190999       184.63306
       2.3198800       191.89635
       2.3206501       187.25346
       2.3214200       192.39105
       2.3222001       186.95146
       2.3229699       133.99220
       2.3237400       155.82591
       2.3245201       166.51815
       2.3252900       168.76410
       2.3260701       172.57318
       2.3268499       179.63028
       2.3276200       176.28655
       2.3283999       170.18291
       2.3291700       178.77808
       2.3299501       176.99247
       2.3307300       182.28775
       2.3315001       182.78401
       2.3322799       183.43907
       2.3330600       180.93918
       2.3338301       176.31453
       2.3346100       185.25300
       2.3353901       178.12368
       2.3361700       186.41475
       2.3369501       181.18555
       2.3377299       176.15650
       2.3385100       181.62193
       2.3392799       176.90222
       2.3400600       184.05802
       2.3408401       187.53091
       2.3416200       177.54966
       2.3424101       185.24056
       2.3431900       185.93304
       2.3439701       184.69471
       2.3447499       184.39174
       2.3455300       177.97595
       2.3463099       188.61406
       2.3470900       181.18445
       2.3478799       181.66960
       2.3486600       185.74536
       2.3494401       180.17608
       2.3502300       186.59058
       2.3510101       183.47906
       2.3517900       185.00446
       2.3525801       136.80693
       2.3533599       152.67276
       2.3541501       155.83873
       2.3549299       172.75111
       2.3557100       165.34113
       2.3564999       170.73332
       2.3572900       171.92744
       2.3580699       167.00514
       2.3588600       178.38606
       2.3596399       173.54976
       2.3604300       174.75328
       2.3612199       172.31503
       2.3620000       184.96975
       2.3627901       171.78215
       2.3635800       177.80682
       2.3643701       177.77734
       2.3651600       170.65889
       2.3659401       187.83637
       2.3667300       173.24843
       2.3675201       181.90636
       2.3683100       183.06757
       2.3691001       177.01401
       2.3698900       176.10009
       2.3706801       179.48255
       2.3714700       179.77118
       2.3722601       177.76375
       2.3730500       177.33443
       2.3738401       172.80304
       2.3746300       170.57456
       2.3754301       171.96394
       2.3762200       181.12463
       2.3770101       184.33286
       2.3778000       180.65262
       2.3785901       179.50815
       2.3793900       177.16178
       2.3801799       185.50020
       2.3809700       173.67756
       2.3817699       184.07380
       2.3825600       177.69416
       2.3833599       125.63849
       2.3841500       151.35472
       2.3849399       161.86228
       2.3857400       159.56901
       2.3865299       159.76394
       2.3873301       169.39641
       2.3881199       167.88088
       2.3889201       172.16322
       2.3897200       168.37260
       2.3905201       170.87018
       2.3913100       171.00782
       2.3921101       174.10651
       2.3929100       164.83454
       2.3936999       177.50555
       2.3945000       170.91655
       2.3952999       173.35120
       2.3961000       177.52733
       2.3968999       174.03082
       2.3977001       165.58412
       2.3984900       182.16274
       2.3992901       177.58740
       2.4000900       170.14975
       2.4008901       173.36641
       2.4016900       179.63699
       2.4024899       178.13701
       2.4033000       178.59073
       2.4040999       168.69794
       2.4049001       181.77307
       2.4057000       169.91963
       2.4065001       185.62090
       2.4073000       172.74346
       2.4081099       173.51420
       2.4089100       179.63185
       2.4097099       179.38577
       2.4105201       180.33137
       2.4113200       172.03415
       2.4121201       182.04357
       2.4129300       179.90465
       2.4137299       165.79470
       2.4145401       130.33706
       2.4153399       158.56135
       2.4161501       148.09934
       2.4169500       159.98890
       2.4177599       171.09081
       2.4185600       166.75952
       2.4193699       163.80134
       2.4201701       163.65423
       2.4209800       172.74208
       2.4217899       171.98251
       2.4226000       168.21889
       2.4233999       166.93670
       2.4242101       174.52049
       2.4250200       174.64817
       2.4258299       165.63020
       2.4266400       170.37275
       2.4274499       173.79742
       2.4282501       168.87250
       2.4290600       172.71669
       2.4298699       169.12368
       2.4306800       178.72790
       2.4314899       166.32794
       2.4323001       176.91404
       2.4331200       183.03914
       2.4339299       164.16429
       2.4347401       174.59514
       2.4355500       168.94322
       2.4363599       171.05915
       2.4371700       177.56708
       2.4379799       164.74976
       2.4388001       177.09444
       2.4396100       175.28954
       2.4404199       175.04589
       2.4412401       169.63145
       2.4420500       176.18851
       2.4428699       174.33565
       2.4436800       182.20571
       2.4444900       159.40422
       2.4453101       182.09861
       2.4461200       147.60072
       2.4469399       152.99094
       2.4477501       142.27086
       2.4485700       168.26979
       2.4493899       157.26183
       2.4502001       165.52018
       2.4510200       159.98604
       2.4518399       157.54531
       2.4526501       171.19577
       2.4534700       164.28440
       2.4542899       163.46538
       2.4551101       171.18242
       2.4559300       165.77785
       2.4567399       159.67549
       2.4575601       160.54602
       2.4583800       173.11465
       2.4591999       165.70077
       2.4600201       173.06087
       2.4608400       168.89953
       2.4616599       176.07510
       2.4624801       168.78980
       2.4633000       170.70738
       2.4641199       175.50840
       2.4649501       168.19437
       2.4657700       169.07747
       2.4665899       177.78251
       2.4674101       168.54198
       2.4682300       169.27163
       2.4690599       173.05931
       2.4698801       163.58445
       2.4707000       174.09660
       2.4715300       168.46241
       2.4723499       169.25984
       2.4731700       166.95045
       2.4740000       174.96793
       2.4748299       170.37209
       2.4756501       167.23794
       2.4764700       163.24514
       2.4772999       180.03865
       2.4781301       173.75511
       2.4789500       142.55669
       2.4797800       153.88029
       2.4806001       157.55028
       2.4814301       158.53937
       2.4822600       152.94960
       2.4830899       156.69225
       2.4839101       167.11291
       2.4847400       170.13358
       2.4855700       159.60042
       2.4863999       155.74145
       2.4872301       156.72561
       2.4880600       164.32354
       2.4888899       164.52464
       2.4897201       165.90132
       2.4905500       173.60786
       2.4913800       159.26942
       2.4922099       169.21822
       2.4930401       159.66975
       2.4938700       176.56441
       2.4947000       161.97122
       2.4955299       171.48730
       2.4963601       161.85998
       2.4971900       170.40256
       2.4980299       165.51835
       2.4988599       169.75323
       2.4996600       164.13970
       2.5005200       164.15905
       2.5013599       166.23607
       2.5021901       169.70577
       2.5030200       166.89678
       2.5038600       167.13290
       2.5046999       166.28545
       2.5055301       168.93173
       2.5063601       175.53250
       2.5072000       167.69577
       2.5080400       162.97716
       2.5088699       161.47123
       2.5097101       171.70058
       2.5105500       168.73727
       2.5113900       156.00110
       2.5122199       159.56873
       2.5130601       162.48530
       2.5139000       157.93812
       2.5147400       154.56309
       2.5155699       162.58268
       2.5164101       161.29193
       2.5172501       165.40714
       2.5180900       156.67882
       2.5189199       162.19143
       2.5197599       163.02975
       2.5206101       168.38336
       2.5214500       164.58308
       2.5222900       169.24795
       2.5231199       164.15027
       2.5239699       159.02109
       2.5248101       168.71574
       2.5256500       163.22201
       2.5264900       167.32600
       2.5273399       158.47542
       2.5281799       163.69570
       2.5290201       166.07812
       2.5298600       170.14330
       2.5307100       166.09746
       2.5315499       164.86460
       2.5323901       164.01090
       2.5332401       164.83657
       2.5340800       168.82595
       2.5349300       172.77393
       2.5357699       164.19703
       2.5366199       169.74731
       2.5374601       154.82966
       2.5383101       168.00859
       2.5391600       167.74033
       2.5400100       166.86738
       2.5408499       161.57790
       2.5416901       155.46674
       2.5425401       162.64661
       2.5433900       174.44687
       2.5442400       152.09242
       2.5450900       170.40615
       2.5459299       170.61935
       2.5467801       147.15953
       2.5476301       159.12037
       2.5484800       160.34327
       2.5493300       163.48327
       2.5501800       165.28296
       2.5510299       151.89059
       2.5518799       156.51223
       2.5527301       155.73756
       2.5535800       164.20945
       2.5544300       160.98993
       2.5552800       156.18758
       2.5561399       154.64873
       2.5569899       157.03494
       2.5578401       162.70578
       2.5586901       162.50589
       2.5595400       168.99705
       2.5604000       156.08951
       2.5612600       167.93079
       2.5621099       157.15533
       2.5629599       169.06681
       2.5638199       163.59430
       2.5646701       161.08242
       2.5655200       166.02712
       2.5663800       159.49100
       2.5672400       160.25397
       2.5680900       172.08044
       2.5689499       160.11715
       2.5698099       167.75724
       2.5706601       157.79543
       2.5715201       171.11204
       2.5723701       165.63675
       2.5732300       165.98350
       2.5740900       163.80036
       2.5749500       162.31160
       2.5758100       166.23300
       2.5766599       167.64179
       2.5775199       162.01456
       2.5783899       162.63648
       2.5792401       171.97584
       2.5801001       163.00366
       2.5809600       170.71939
       2.5818300       145.05969
       2.5826900       163.60797
       2.5835500       160.55777
       2.5844100       158.96510
       2.5852599       151.82139
       2.5861199       153.49776
       2.5869901       168.03315
       2.5878501       165.62374
       2.5887101       163.84008
       2.5895700       163.30019
       2.5904400       161.14960
       2.5913000       163.34893
       2.5921700       167.31788
       2.5930400       162.78729
       2.5939000       168.54363
       2.5947599       157.60072
       2.5956199       160.89300
       2.5964899       164.57516
       2.5973599       169.35766
       2.5982201       164.59942
       2.5990901       164.70183
       2.5999601       156.64031
       2.6008201       165.03681
       2.6016901       167.63530
       2.6025600       169.82441
       2.6034200       162.04323
       2.6042900       163.67347
       2.6051600       161.19202
       2.6060300       169.24371
       2.6069000       163.24966
       2.6077700       166.69120
       2.6086400       160.78292
       2.6095099       162.54132
       2.6103699       166.01423
       2.6112399       167.68519
       2.6121199       156.70503
       2.6129899       167.65904
       2.6138599       168.28097
       2.6147299       162.76711
       2.6156001       169.54151
       2.6164701       156.24847
       2.6173401       160.51706
       2.6182201       160.53524
       2.6190901       159.98463
       2.6199601       155.24309
       2.6208301       160.16969
       2.6217101       161.61266
       2.6225801       156.58513
       2.6234601       162.65602
       2.6243300       159.52611
       2.6252100       151.05077
       2.6260800       152.46559
       2.6269600       163.80769
       2.6278300       160.69845
       2.6287100       165.84927
       2.6295800       158.75452
       2.6304600       159.59978
       2.6313400       163.69748
       2.6322200       167.71354
       2.6330900       160.92288
       2.6339700       155.96344
       2.6348500       166.45115
       2.6357300       160.31250
       2.6366100       165.69496
       2.6374800       166.65204
       2.6383600       162.68189
       2.6392400       157.25155
       2.6401200       143.69457
       2.6410100       163.99763
       2.6418800       164.24232
       2.6427600       161.17848
       2.6436400       162.65641
       2.6445200       161.95954
       2.6454101       162.66367
       2.6462901       163.99682
       2.6471701       160.45789
       2.6480501       159.19160
       2.6489401       166.37108
       2.6498201       160.67757
       2.6507001       164.38346
       2.6515901       153.31824
       2.6524701       160.29177
       2.6533501       167.79823
       2.6542399       154.99530
       2.6551199       149.18936
       2.6560099       157.60602
       2.6568899       162.65373
       2.6577699       160.04392
       2.6586599       161.76428
       2.6595500       159.19067
       2.6604400       159.70983
       2.6613200       159.85511
       2.6622100       158.95055
       2.6631000       160.09513
       2.6639900       161.38321
       2.6648700       150.12761
       2.6657600       156.27146
       2.6666501       159.50869
       2.6675401       163.05596
       2.6684201       165.43635
       2.6693201       154.78321
       2.6702099       161.41888
       2.6710999       157.40958
       2.6719899       164.44510
       2.6728799       162.68889
       2.6737700       162.46651
       2.6746600       160.40507
       2.6755500       152.86616
       2.6764400       162.15136
       2.6773400       162.77169
       2.6782300       160.45432
       2.6791201       163.58622
       2.6800201       154.43781
       2.6809101       165.48685
       2.6818099       158.27261
       2.6826999       160.25892
       2.6835899       160.49393
       2.6844900       164.48866
       2.6853800       158.70503
       2.6862800       165.46890
       2.6871700       163.94897
       2.6880701       152.19428
       2.6889601       164.30692
       2.6898601       163.22379
       2.6907599       157.65411
       2.6916599       161.20093
       2.6925499       156.08847
       2.6934400       160.66518
       2.6943400       158.64701
       2.6952400       157.98753
       2.6961401       157.94238
       2.6970401       154.98657
       2.6979401       162.11446
       2.6988399       160.39863
       2.6997399       155.73445
       2.7006400       158.74625
       2.7015400       159.94064
       2.7024400       156.43646
       2.7033401       160.21046
       2.7042401       161.05216
       2.7051401       162.86705
       2.7060399       152.43371
       2.7069399       159.14001
       2.7078500       154.19215
       2.7087600       163.63790
       2.7096601       161.02522
       2.7105601       161.47065
       2.7114601       156.30973
       2.7123699       157.34871
       2.7132699       159.85611
       2.7141700       161.53371
       2.7150800       159.84231
       2.7159801       159.05779
       2.7168901       156.45354
       2.7177899       158.26998
       2.7186999       160.51790
       2.7196100       156.35593
       2.7205100       158.81100
       2.7214200       160.64063
       2.7223201       156.32487
       2.7232399       160.62534
       2.7241399       159.92897
       2.7250500       153.99274
       2.7259600       161.57838
       2.7268701       158.75370
       2.7277701       156.44207
       2.7286899       160.30586
       2.7295899       156.20348
       2.7305000       158.45916
       2.7314100       155.13234
       2.7323201       157.90340
       2.7332399       155.94856
       2.7341499       154.45428
       2.7350600       159.89270
       2.7359700       158.89472
       2.7368901       155.97303
       2.7377999       156.82735
       2.7387099       154.83766
       2.7396200       153.40080
       2.7405400       157.93060
       2.7414501       158.90294
       2.7423601       161.29037
       2.7432699       152.39445
       2.7441900       155.46016
       2.7451000       158.56666
       2.7460201       159.59685
       2.7469399       159.60687
       2.7478499       155.58938
       2.7487600       157.32684
       2.7496800       155.09159
       2.7506001       158.96322
       2.7515099       157.99250
       2.7524300       159.04189
       2.7533500       160.86517
       2.7542701       156.49760
       2.7551899       155.02647
       2.7561100       155.97905
       2.7570300       156.04712
       2.7579401       155.25464
       2.7588601       156.41811
       2.7597799       155.13555
       2.7607000       159.88027
       2.7616200       158.67651
       2.7625401       154.65970
       2.7634599       158.44808
       2.7643800       160.16045
       2.7653100       157.21493
       2.7662301       156.27294
       2.7671499       155.79962
       2.7680700       157.60497
       2.7689900       156.38725
       2.7699201       158.02742
       2.7708399       155.27000
       2.7717700       155.58213
       2.7726901       154.43498
       2.7736101       156.02778
       2.7745299       157.13938
       2.7754600       153.11234
       2.7763801       156.33578
       2.7773099       154.16405
       2.7782400       157.64357
       2.7791700       157.32923
       2.7800901       157.64021
       2.7810199       156.10528
       2.7819400       151.96312
       2.7828701       151.47023
       2.7837999       157.04509
       2.7847300       157.13840
       2.7856600       157.27145
       2.7865801       155.17333
       2.7875099       153.23708
       2.7884400       155.19442
       2.7893701       155.13403
       2.7902999       155.96438
       2.7912300       153.09031
       2.7921600       155.56234
       2.7930901       152.29786
       2.7940199       153.61560
       2.7949600       155.15318
       2.7958901       155.99754
       2.7968199       154.12643
       2.7977500       155.32612
       2.7986801       152.82239
       2.7996099       155.89298
       2.8005500       153.20602
       2.8014801       152.76221
       2.8024099       149.78292
       2.8033500       154.64819
       2.8042901       151.78538
       2.8052199       153.59619
       2.8061500       153.84376
       2.8070900       151.44997
       2.8080201       151.59234
       2.8089600       155.04424
       2.8099000       152.66971
       2.8108399       151.78225
       2.8117700       149.59426
       2.8127100       153.27363
       2.8136499       150.75046
       2.8145900       151.66280
       2.8155200       151.26596
       2.8164599       150.52214
       2.8174000       152.69173
       2.8183401       150.87212
       2.8192699       149.84303
       2.8202200       150.38883
       2.8211601       150.89635
       2.8220999       149.38930
       2.8230400       150.55972
       2.8239801       151.26984
       2.8249199       150.21587
       2.8258600       149.00929
       2.8268099       148.18304
       2.8277500       150.41983
       2.8286901       148.82030
       2.8296299       149.81813
       2.8305700       148.55172
       2.8315201       150.90893
       2.8324599       147.72742
       2.8334100       148.44315
       2.8343501       148.54490
       2.8352900       150.47797
       2.8362401       147.51574
       2.8371899       149.18189
       2.8381300       147.01818
       2.8390801       149.81842
       2.8400199       146.77827
       2.8409700       144.35331
       2.8419199       147.54965
       2.8428700       147.36383
       2.8438201       146.53267
       2.8447599       145.29863
       2.8457100       148.31846
       2.8466599       145.59678
       2.8476100       145.59534
       2.8485601       148.18704
       2.8495100       145.89946
       2.8504601       143.99857
       2.8514099       144.99912
       2.8523600       145.39890
       2.8533101       144.37748
       2.8542600       140.30605
       2.8552101       142.84961
       2.8561599       143.77912
       2.8571200       144.93458
       2.8580699       145.01190
       2.8590200       144.37127
       2.8599701       140.76120
       2.8609200       144.30905
       2.8618801       142.29677
       2.8628299       140.56196
       2.8637900       143.71032
       2.8647399       143.83777
       2.8656900       142.01690
       2.8666501       140.89418
       2.8676100       142.34244
       2.8685601       140.66519
       2.8695199       139.88198
       2.8704700       137.39509
       2.8714299       139.52038
       2.8723900       137.88472
       2.8733499       136.58692
       2.8743100       139.80299
       2.8752601       138.20113
       2.8762200       140.47866
       2.8771801       140.24717
       2.8781400       139.85212
       2.8791001       138.37876
       2.8800600       138.87242
       2.8810201       139.21983
       2.8819699       137.80180
       2.8829401       138.79885
       2.8838999       138.37586
       2.8848600       136.30071
       2.8858199       135.54567
       2.8867900       137.03147
       2.8877499       133.17710
       2.8887100       135.61919
       2.8896699       137.80630
       2.8906400       135.33164
       2.8915999       136.93667
       2.8925600       135.85659
       2.8935201       136.57884
       2.8944900       134.55858
       2.8954599       135.52827
       2.8964300       133.79080
       2.8973899       134.88851
       2.8983600       133.51805
       2.8993199       134.97015
       2.9002900       134.84947
       2.9012499       128.61339
       2.9022200       133.26176
       2.9031899       132.37084
       2.9041600       132.37063
       2.9051199       132.14111
       2.9060900       131.36642
       2.9070599       133.72516
       2.9080300       131.32499
       2.9089999       132.46904
       2.9099700       130.96801
       2.9109399       132.10140
       2.9119101       131.92618
       2.9128799       131.48853
       2.9138501       130.27947
       2.9148200       130.27691
       2.9157901       131.12405
       2.9167700       130.72930
       2.9177401       130.63185
       2.9187100       130.51695
       2.9196801       130.23054
       2.9206600       129.25235
       2.9216299       129.73157
       2.9226100       124.36580
       2.9235799       126.45762
       2.9245601       129.20944
       2.9255300       128.55032
       2.9265101       125.77509
       2.9274800       128.88063
       2.9284599       124.78326
       2.9294300       127.57983
       2.9304099       127.52739
       2.9313800       127.51071
       2.9323599       127.46265
       2.9333401       126.13098
       2.9343200       122.80438
       2.9352901       125.76428
       2.9362700       125.52607
       2.9372499       126.23314
       2.9382300       123.11552
       2.9392099       125.63208
       2.9401901       125.38285
       2.9411700       125.11692
       2.9421501       126.10111
       2.9431300       123.12860
       2.9441099       125.14170
       2.9450901       122.86505
       2.9460700       123.16863
       2.9470601       122.13810
       2.9480400       124.72245
       2.9490199       124.36395
       2.9500101       123.09435
       2.9509900       123.53915
       2.9519701       124.27313
       2.9529600       124.06953
       2.9539399       123.15296
       2.9549201       122.74698
       2.9559100       123.03212
       2.9568999       122.36908
       2.9578800       122.74804
       2.9588599       123.33904
       2.9598501       121.19976
       2.9608400       120.77306
       2.9618199       122.68615
       2.9628100       122.75364
       2.9638000       122.26199
       2.9647901       121.16818
       2.9657800       122.60569
       2.9667599       122.78784
       2.9677501       122.48793
       2.9687400       121.71173
       2.9697399       119.24909
       2.9707201       119.95070
       2.9717100       121.67611
       2.9727099       120.94043
       2.9737000       122.36734
       2.9746900       121.99932
       2.9756701       121.22343
       2.9766700       121.15796
       2.9776599       121.82735
       2.9786601       120.56425
       2.9796500       119.86185
       2.9806399       121.32784
       2.9816401       121.02030
       2.9826300       121.11425
       2.9836199       120.83220
       2.9846201       121.19870
       2.9856100       120.99547
       2.9866099       120.37463
       2.9876101       119.45507
       2.9886000       119.54453
       2.9895899       118.30510
       2.9905901       120.45817
       2.9915900       119.32328
       2.9925799       120.18407
       2.9935801       119.32477
       2.9945800       119.95879
       2.9955800       119.44343
       2.9965799       117.68058
       2.9975801       119.66719
       2.9985800       119.01353
       2.9995799       116.81868
       3.0005801       114.91805
       3.0015700       118.91014
       3.0025799       119.09689
       3.0035801       118.46210
       3.0045800       118.22919
       3.0055799       118.70436
       3.0065801       117.65385
       3.0075800       115.94706
       3.0085800       115.95591
       3.0095799       117.77668
       3.0105901       117.49443
       3.0116000       118.37202
       3.0125999       117.98467
       3.0136001       117.75957
       3.0146101       117.09660
       3.0156100       117.54682
       3.0166199       116.89607
       3.0176201       117.41670
       3.0186300       117.51733
       3.0196300       116.58429
       3.0206399       115.20418
       3.0216401       117.30139
       3.0226600       116.81824
       3.0236700       116.12699
       3.0246699       115.90163
       3.0256801       117.10877
       3.0266800       114.93504
       3.0276999       115.63383
       3.0287099       116.51973
       3.0297101       116.83185
       3.0307300       116.37958
       3.0317400       115.96793
       3.0327401       114.31512
       3.0337601       116.10782
       3.0347700       116.06302
       3.0357800       115.82293
       3.0367899       115.58732
       3.0378101       114.91285
       3.0388200       113.12234
       3.0398300       112.02781
       3.0408399       115.26832
       3.0418601       110.81594
       3.0428700       114.93691
       3.0438800       114.91793
       3.0448999       114.46919
       3.0459099       115.47442
       3.0469301       115.57039
       3.0479500       112.94981
       3.0489700       112.99922
       3.0499799       115.17268
       3.0509901       115.51972
       3.0520101       115.16062
       3.0530300       114.99296
       3.0540500       114.84568
       3.0550599       113.12545
       3.0560801       115.47589
       3.0571001       114.92231
       3.0581200       113.90306
       3.0591400       115.04617
       3.0601599       115.18968
       3.0611801       115.14332
       3.0622001       115.20772
       3.0632200       115.06845
       3.0642400       111.87206
       3.0652599       113.35279
       3.0662899       115.00806
       3.0673101       114.99516
       3.0683300       113.23826
       3.0693500       114.92648
       3.0703700       114.18979
       3.0713999       114.66720
       3.0724299       114.64290
       3.0734501       114.50757
       3.0744700       114.17690
       3.0755000       115.06434
       3.0765200       114.54386
       3.0775499       114.84617
       3.0785799       112.71406
       3.0796001       114.71735
       3.0806201       113.06144
       3.0816500       113.65598
       3.0826800       114.30603
       3.0837100       113.04092
       3.0847299       112.57651
       3.0857601       112.27466
       3.0867901       112.49302
       3.0878201       114.81478
       3.0888500       114.50569
       3.0898800       114.43679
       3.0909100       109.87026
       3.0919399       114.29550
       3.0929699       114.79667
       3.0940001       114.28240
       3.0950301       114.70532
       3.0960600       113.72820
       3.0971000       114.75931
       3.0981300       112.33976
       3.0991600       114.64491
       3.1001999       114.66414
       3.1012299       114.92507
       3.1022601       114.54308
       3.1032901       115.02063
       3.1043200       114.34882
       3.1053600       113.23469
       3.1064000       114.01598
       3.1074300       114.39212
       3.1084700       114.97076
       3.1095099       114.78051
       3.1105499       114.99991
       3.1115799       114.93351
       3.1126201       114.77469
       3.1136501       114.14364
       3.1146901       111.23894
       3.1157300       109.20153
       3.1167700       112.19611
       3.1178100       114.65920
       3.1188400       114.62429
       3.1198900       114.84817
       3.1209300       114.79129
       3.1219599       115.10325
       3.1230099       114.75891
       3.1240499       115.02173
       3.1250899       114.67915
       3.1261301       114.91104
       3.1271801       114.30056
       3.1282201       114.51787
       3.1292601       115.12405
       3.1303000       112.49923
       3.1313500       112.79926
       3.1323900       114.96817
       3.1334300       115.10838
       3.1344800       114.82651
       3.1355200       112.33588
       3.1365700       112.99258
       3.1376200       115.03646
       3.1386600       115.26024
       3.1396999       114.66571
       3.1407499       114.27477
       3.1417999       115.14578
       3.1428499       114.46570
       3.1438999       115.48204
       3.1449399       115.28545
       3.1459899       115.15156
       3.1470399       115.14646
       3.1480899       113.22514
       3.1491399       115.80179
       3.1501901       115.75028
       3.1512401       112.78497
       3.1522901       114.50221
       3.1533401       115.74534
       3.1543901       115.87135
       3.1554401       115.49752
       3.1564901       114.46654
       3.1575501       114.01264
       3.1586001       115.79115
       3.1596501       114.96490
       3.1607001       115.74967
       3.1617601       115.76063
       3.1628201       114.55998
       3.1638701       116.02673
       3.1649201       115.16248
       3.1659701       115.83316
       3.1670301       115.74752
       3.1680901       114.08447
       3.1691501       115.90613
       3.1702001       113.83424
       3.1712501       115.61215
       3.1723101       115.47759
       3.1733699       115.76693
       3.1744299       116.05806
       3.1754799       116.27053
       3.1765499       115.18178
       3.1776099       116.18964
       3.1786599       110.97806
       3.1797199       115.55963
       3.1807799       113.74929
       3.1818399       115.32682
       3.1829100       112.98763
       3.1839700       113.97979
       3.1850200       116.73693
       3.1860900       116.63468
       3.1871600       116.45369
       3.1882100       115.92012
       3.1892700       116.49896
       3.1903300       116.59628
       3.1914001       116.71210
       3.1924601       113.58394
       3.1935301       116.83704
       3.1945901       116.82039
       3.1956601       116.29843
       3.1967199       116.73776
       3.1977899       116.88292
       3.1988499       116.44566
       3.1999199       113.56611
       3.2009799       114.69660
       3.2020600       116.93331
       3.2031300       116.48053
       3.2041900       116.51107
       3.2052600       115.87842
       3.2063200       116.17505
       3.2074001       116.78183
       3.2084701       117.22414
       3.2095301       116.96894
       3.2106099       116.37229
       3.2116799       116.69720
       3.2127399       117.18733
       3.2138200       117.29198
       3.2148900       115.26380
       3.2159600       117.02792
       3.2170300       116.98160
       3.2181101       117.14884
       3.2191801       116.95510
       3.2202499       117.31346
       3.2213199       116.54437
       3.2224000       117.31856
       3.2234700       115.94455
       3.2245400       117.15457
       3.2256200       117.46131
       3.2266901       116.72689
       3.2277701       116.86596
       3.2288499       114.62450
       3.2299299       114.87888
       3.2309999       116.81442
       3.2320700       114.87891
       3.2331500       114.83792
       3.2342300       115.56504
       3.2353101       117.66881
       3.2363901       116.82411
       3.2374699       117.65936
       3.2385499       114.75235
       3.2396300       117.11739
       3.2407100       117.25035
       3.2417901       116.70395
       3.2428701       114.93628
       3.2439499       117.70020
       3.2450299       116.04065
       3.2461100       116.10540
       3.2471900       117.72402
       3.2482700       117.39253
       3.2493501       117.76052
       3.2504399       117.52314
       3.2515299       116.63421
       3.2526100       117.76126
       3.2536900       117.58004
       3.2547700       117.62005
       3.2558601       117.18562
       3.2569499       117.87630
       3.2580400       117.61955
       3.2591200       117.91165
       3.2602000       117.90770
       3.2612901       117.96447
       3.2623799       117.85441
       3.2634699       117.56111
       3.2645500       116.75434
       3.2656400       117.86898
       3.2667301       117.50125
       3.2678199       117.90063
       3.2688999       117.61201
       3.2700000       117.91689
       3.2710900       117.27472
       3.2721701       117.70015
       3.2732699       117.87944
       3.2743599       117.98871
       3.2754500       117.80810
       3.2765400       116.75377
       3.2776301       117.92731
       3.2787299       117.81855
       3.2798200       117.04186
       3.2809200       115.21309
       3.2820101       114.99123
       3.2831099       117.55014
       3.2842000       114.63121
       3.2852800       117.90049
       3.2863901       115.53691
       3.2874899       114.71462
       3.2885799       117.87105
       3.2896800       117.87058
       3.2907701       117.49413
       3.2918701       116.26489
       3.2929599       115.85238
       3.2940600       115.63683
       3.2951601       117.24607
       3.2962601       115.69914
       3.2973599       114.73322
       3.2984500       116.68622
       3.2995601       117.24003
       3.3006599       117.25470
       3.3017499       117.52531
       3.3028600       117.76064
       3.3039601       117.77880
       3.3050599       116.40647
       3.3061600       117.68511
       3.3072600       117.47073
       3.3083601       117.51024
       3.3094699       116.56733
       3.3105800       117.49152
       3.3116801       117.28790
       3.3127799       117.51596
       3.3138800       117.39726
       3.3149900       117.03712
       3.3160901       116.21901
       3.3171999       116.53182
       3.3183100       115.82520
       3.3194101       114.53883
       3.3205099       106.94746
       3.3216200       117.06491
       3.3227301       117.23445
       3.3238399       116.79445
       3.3249500       115.77571
       3.3260500       115.07481
       3.3271599       117.13373
       3.3282700       116.95398
       3.3293800       115.53580
       3.3304901       117.26661
       3.3316000       117.20148
       3.3327100       117.28361
       3.3338201       117.29915
       3.3349299       116.86390
       3.3360500       117.15748
       3.3371601       115.16627
       3.3382699       113.53117
       3.3393800       113.29632
       3.3404901       115.23213
       3.3416100       114.91076
       3.3427300       115.72769
       3.3438399       114.77091
       3.3449500       117.32863
       3.3460701       117.00112
       3.3471799       117.41125
       3.3483000       117.38659
       3.3494201       116.95506
       3.3505299       117.20751
       3.3516400       116.92812
       3.3527601       117.16181
       3.3538799       115.82578
       3.3550000       117.01339
       3.3561201       116.67082
       3.3572400       115.69292
       3.3583601       117.21936
       3.3594699       117.38165
       3.3606000       117.05250
       3.3617201       117.32833
       3.3628299       117.27703
       3.3639600       117.29963
       3.3650801       116.28549
       3.3662000       114.28448
       3.3673201       117.20075
       3.3684399       116.96652
       3.3695700       116.67145
       3.3706901       114.21277
       3.3718200       117.08495
       3.3729401       116.10159
       3.3740699       116.48716
       3.3751900       117.05620
       3.3763199       116.11519
       3.3774400       115.78323
       3.3785701       116.20227
       3.3796899       116.67989
       3.3808200       116.94043
       3.3819399       116.01644
       3.3830700       115.69162
       3.3841901       116.84166
       3.3853300       116.36481
       3.3864601       117.14593
       3.3875799       117.10204
       3.3887100       116.65853
       3.3898399       116.70499
       3.3909700       115.25002
       3.3921001       114.27852
       3.3932300       115.22490
       3.3943601       114.90369
       3.3954999       115.76397
       3.3966300       108.07061
       3.3977599       112.30555
       3.3988900       111.47823
       3.4000299       116.62697
       3.4011600       112.67797
       3.4022901       116.72800
       3.4034200       116.70277
       3.4045601       116.80257
       3.4057000       116.86055
       3.4068301       114.20039
       3.4079599       115.67628
       3.4091001       114.41242
       3.4102399       115.93008
       3.4113801       116.63279
       3.4125099       116.68287
       3.4136500       114.03980
       3.4147899       113.66926
       3.4159300       114.36374
       3.4170699       115.69893
       3.4182100       116.34644
       3.4193499       116.06112
       3.4204900       116.12882
       3.4216299       116.27024
       3.4227700       115.74556
       3.4239099       115.61423
       3.4250500       116.03729
       3.4261899       116.52254
       3.4273300       114.87891
       3.4284699       115.95548
       3.4296200       116.68001
       3.4307599       115.93682
       3.4319000       116.54958
       3.4330399       116.47811
       3.4341900       115.87875
       3.4353399       116.00851
       3.4364800       116.33039
       3.4376199       116.08311
       3.4387701       115.67386
       3.4399199       115.09054
       3.4410701       115.97829
       3.4422100       115.16647
       3.4433601       116.46660
       3.4445100       116.01971
       3.4456601       116.12109
       3.4468100       115.66898
       3.4479499       114.65750
       3.4491000       114.55758
       3.4502499       116.01228
       3.4514000       116.27855
       3.4525499       114.23657
       3.4537001       114.47629
       3.4548600       115.87484
       3.4560101       113.32460
       3.4571500       114.02960
       3.4583099       112.64133
       3.4594600       115.38247
       3.4606199       113.91622
       3.4617701       116.06503
       3.4629300       115.48183
       3.4640801       115.43044
       3.4652400       114.38622
       3.4663899       115.78363
       3.4675500       115.54873
       3.4686999       115.78690
       3.4698601       115.32938
       3.4710100       115.74111
       3.4721701       115.46740
       3.4733300       113.83372
       3.4744799       114.96482
       3.4756401       115.47484
       3.4768000       115.31207
       3.4779601       115.16111
       3.4791200       115.55962
       3.4802799       115.64028
       3.4814401       115.51185
       3.4826000       115.35614
       3.4837601       115.32672
       3.4849200       114.81379
       3.4860799       114.45566
       3.4872401       115.00777
       3.4884100       114.43058
       3.4895699       114.26517
       3.4907300       115.33020
       3.4919000       113.94112
       3.4930601       113.86207
       3.4942300       113.22310
       3.4953899       114.09671
       3.4965501       115.00223
       3.4977200       114.88709
       3.4988899       114.58200
       3.5000401       114.64496
       3.5012200       112.84439
       3.5023899       114.61170
       3.5035501       114.81301
       3.5047200       114.19469
       3.5058999       114.71922
       3.5070601       114.66828
       3.5082200       113.27802
       3.5093999       111.49622
       3.5105700       112.58850
       3.5117400       113.98889
       3.5129099       110.57827
       3.5140901       113.62876
       3.5152500       112.39999
       3.5164101       113.73222
       3.5175900       113.25369
       3.5187600       112.61994
       3.5199299       111.52311
       3.5211101       112.32449
       3.5222900       112.26442
       3.5234699       112.61806
       3.5246401       112.23660
       3.5258100       113.97341
       3.5269799       113.03783
       3.5281601       113.60234
       3.5293400       112.71234
       3.5305200       113.23640
       3.5316899       113.36558
       3.5328600       113.08351
       3.5340500       113.07299
       3.5352299       113.35962
       3.5364001       112.32746
       3.5375800       111.97777
       3.5387599       110.76297
       3.5399401       112.13181
       3.5411201       111.29020
       3.5423000       113.15076
       3.5434799       111.39382
       3.5446601       112.19560
       3.5458400       112.89520
       3.5470200       113.21923
       3.5481999       112.24699
       3.5493901       112.45493
       3.5505800       113.27915
       3.5517600       113.24649
       3.5529499       112.60964
       3.5541301       113.03033
       3.5553100       111.60431
       3.5565000       112.82127
       3.5576799       113.04280
       3.5588601       112.95588
       3.5600500       110.73333
       3.5612400       112.90762
       3.5624299       112.85502
       3.5636201       112.82610
       3.5648000       112.81459
       3.5659800       112.44922
       3.5671699       112.27861
       3.5683601       112.69479
       3.5695500       110.98390
       3.5707400       109.25777
       3.5719299       110.18291
       3.5731201       109.77925
       3.5743101       110.81169
       3.5755000       111.03887
       3.5767000       111.08642
       3.5778999       111.52870
       3.5790901       110.66231
       3.5802801       110.18060
       3.5814700       111.70595
       3.5826700       112.11008
       3.5838699       111.25107
       3.5850599       110.60583
       3.5862501       111.83215
       3.5874500       109.98840
       3.5886500       110.01662
       3.5898399       109.64292
       3.5910299       111.49542
       3.5922301       109.33094
       3.5934300       111.62715
       3.5946300       111.54164
       3.5958300       111.12432
       3.5970299       109.69877
       3.5982299       111.24391
       3.5994301       111.18709
       3.6006200       110.92946
       3.6018200       111.01289
       3.6030200       110.37348
       3.6042299       111.20675
       3.6054299       110.70188
       3.6066301       111.00880
       3.6078300       111.05965
       3.6090300       110.73595
       3.6102300       110.85449
       3.6114399       110.87111
       3.6126499       110.55043
       3.6138501       110.50402
       3.6150401       110.31115
       3.6162500       110.58520
       3.6174600       110.50396
       3.6186700       110.47807
       3.6198699       110.52149
       3.6210799       110.32657
       3.6222899       110.07459
       3.6235001       110.22928
       3.6247001       109.57565
       3.6259100       109.54305
       3.6271200       110.18912
       3.6283300       109.79907
       3.6295300       109.37818
       3.6307399       108.21045
       3.6319599       108.80564
       3.6331699       109.09956
       3.6343801       109.91879
       3.6355901       107.40029
       3.6368101       107.32284
       3.6380200       108.24557
       3.6392300       109.74483
       3.6404400       108.02807
       3.6416500       109.40246
       3.6428699       109.45304
       3.6440899       107.75461
       3.6452999       108.36649
       3.6465099       109.00979
       3.6477301       107.50710
       3.6489401       109.08418
       3.6501601       109.00054
       3.6513700       108.85546
       3.6525900       108.08624
       3.6538200       103.91572
       3.6550300       108.25407
       3.6562500       107.85887
       3.6574600       108.49482
       3.6586800       105.79291
       3.6599100       105.28373
       3.6611300       107.97972
       3.6623499       106.29479
       3.6635599       108.01472
       3.6647899       108.61323
       3.6660099       108.54481
       3.6672399       107.01664
       3.6684501       108.33811
       3.6696701       107.68238
       3.6709001       106.29436
       3.6721201       107.88803
       3.6733501       108.27690
       3.6745701       108.15046
       3.6758001       108.15658
       3.6770201       105.77109
       3.6782501       105.63491
       3.6794701       104.38853
       3.6807001       107.70493
       3.6819201       103.80782
       3.6831501       104.49376
       3.6843901       107.37640
       3.6856101       107.59508
       3.6868401       107.74357
       3.6880600       107.59211
       3.6893001       106.65735
       3.6905301       106.97446
       3.6917601       107.23278
       3.6929901       106.53566
       3.6942201       106.54331
       3.6954501       105.85664
       3.6966801       106.58514
       3.6979201       106.16594
       3.6991501       103.95654
       3.7003801       106.44271
       3.7016201       106.85132
       3.7028501       106.24646
       3.7040801       105.91638
       3.7053199       106.40558
       3.7065499       104.22476
       3.7077899       105.65760
       3.7090199       103.14695
       3.7102599       106.52287
       3.7114999       106.61686
       3.7127299       106.05542
       3.7139699       106.41155
       3.7152100       106.54816
       3.7164500       106.43700
       3.7176800       106.31821
       3.7189200       106.37121
       3.7201700       106.01863
       3.7214100       106.09075
       3.7226501       105.24816
       3.7238901       106.09161
       3.7251301       105.83718
       3.7263601       105.16873
       3.7276001       105.30558
       3.7288499       105.67149
       3.7300899       105.22223
       3.7313399       105.19445
       3.7325900       103.91684
       3.7338300       104.67924
       3.7350800       101.97968
       3.7363200       105.05744
       3.7375600       103.66275
       3.7388000       105.00545
       3.7400601       103.01207
       3.7413099       103.61036
       3.7425499       104.92457
       3.7437899       104.84400
       3.7450399       102.12066
       3.7462900       104.53790
       3.7475400       105.09691
       3.7487900       104.66191
       3.7500401       104.95515
       3.7512901       104.45141
       3.7525401       103.28965
       3.7537899       100.60199
       3.7550399       104.72279
       3.7563000       104.45633
       3.7575500       104.37366
       3.7588000       104.79901
       3.7600501       104.31874
       3.7613001       104.14961
       3.7625599       103.83582
       3.7638099       103.86641
       3.7650599       104.47105
       3.7663200       103.52345
       3.7675800       102.58007
       3.7688301       103.74822
       3.7700901       103.94316
       3.7713499       104.08573
       3.7726099       104.00416
       3.7738700       103.48707
       3.7751300       103.97865
       3.7763901       102.67415
       3.7776501       103.75990
       3.7788999       101.42825
       3.7801499       103.53916
       3.7814100       102.29322
       3.7826800       102.60715
       3.7839501       103.16002
       3.7852099       103.46606
       3.7864699       103.22291
       3.7877300       103.47777
       3.7889900       103.37872
       3.7902501       102.83456
       3.7915101       103.42592
       3.7927699       103.24282
       3.7940400       103.03434
       3.7953000       102.84109
       3.7965701       103.02762
       3.7978401       103.03427
       3.7990999       102.83762
       3.8003700       102.83687
       3.8016400       102.42332
       3.8029001       102.76906
       3.8041699       102.87946
       3.8054399       102.51921
       3.8067000       102.74649
       3.8079700       102.21242
       3.8092401       102.50754
       3.8105099       101.14861
       3.8117800       102.52892
       3.8130600       99.864506
       3.8143301       102.41197
       3.8155899       100.22167
       3.8168700       99.978339
       3.8181400       98.564574
       3.8194101       99.907246
       3.8206899       99.872358
       3.8219600       101.06646
       3.8232300       101.61945
       3.8245001       101.94754
       3.8257799       101.94039
       3.8270600       101.96308
       3.8283300       101.91356
       3.8296101       101.80211
       3.8308899       101.14508
       3.8321700       101.29331
       3.8334401       101.08713
       3.8347199       99.709489
       3.8360000       99.743876
       3.8372800       101.54844
       3.8385501       100.60444
       3.8398299       100.79499
       3.8411100       100.99241
       3.8424001       100.95387
       3.8436799       101.08670
       3.8449600       100.91255
       3.8462400       101.18414
       3.8475201       100.86345
       3.8488100       100.82595
       3.8500900       100.13859
       3.8513701       100.98118
       3.8526599       99.478185
       3.8539400       100.52368
       3.8552201       98.828935
       3.8565099       100.68178
       3.8578000       99.376023
       3.8590801       99.618236
       3.8603699       100.27021
       3.8616500       100.61898
       3.8629401       98.048180
       3.8642299       100.30487
       3.8655100       99.967089
       3.8668101       99.059080
       3.8680899       99.425968
       3.8693800       100.11026
       3.8706801       99.781480
       3.8719599       97.692850
       3.8732500       98.978122
       3.8745401       99.618258
       3.8758399       99.837323
       3.8771300       99.590530
       3.8784201       99.520891
       3.8797100       99.268030
       3.8810000       99.399001
       3.8822999       99.101956
       3.8835900       99.091058
       3.8848901       96.237060
       3.8861799       97.873208
       3.8874800       99.382148
       3.8887701       99.026669
       3.8900700       99.018669
       3.8913600       99.031226
       3.8926599       97.997372
       3.8939700       98.481480
       3.8952601       96.677428
       3.8965600       97.961632
       3.8978500       96.489660
       3.8991599       98.725045
       3.9004600       98.507174
       3.9017601       98.492957
       3.9030600       98.300769
       3.9043601       98.162082
       3.9056599       98.557198
       3.9069600       98.425580
       3.9082699       97.544867
       3.9095700       97.513162
       3.9108701       97.124386
       3.9121799       98.109467
       3.9134800       97.852117
       3.9147799       98.344202
       3.9160900       98.238346
       3.9173901       97.701850
       3.9187000       98.291314
       3.9200001       96.929039
       3.9213099       98.132115
       3.9226201       97.954097
       3.9239199       97.895902
       3.9252300       97.712532
       3.9265399       97.596426
       3.9278600       97.629075
       3.9291601       97.584289
       3.9304600       97.500718
       3.9317801       97.462342
       3.9330900       96.208456
       3.9344001       96.644892
       3.9357100       95.917526
       3.9370301       97.565891
       3.9383399       96.215616
       3.9396501       97.310075
       3.9409599       97.261050
       3.9422801       97.159365
       3.9435899       96.700997
       3.9449000       97.069225
       3.9462099       96.538082
       3.9475400       96.946880
       3.9488599       96.804659
       3.9501700       95.671801
       3.9514799       95.546024
       3.9528000       96.424362
       3.9541199       95.313414
       3.9554400       96.167057
       3.9567599       95.291646
       3.9580801       94.893734
       3.9593899       95.390519
       3.9607100       96.245731
       3.9620299       96.073020
       3.9633601       96.431351
       3.9646800       96.037212
       3.9660001       95.739667
       3.9673200       96.352098
       3.9686401       96.242026
       3.9699600       96.104191
       3.9712801       96.226753
       3.9726100       96.157011
       3.9739299       95.829307
       3.9752600       95.893400
       3.9765899       95.635868
       3.9779201       95.248178
       3.9792399       94.918246
       3.9805601       95.412940
       3.9818900       94.244313
       3.9832201       95.235087
       3.9845500       94.557364
       3.9858799       92.465319
       3.9872100       94.993016
       3.9885399       94.266013
       3.9898701       95.195120
       3.9912000       92.881663
       3.9925301       95.170357
       3.9938600       95.205222
       3.9951899       93.600921
       3.9965200       94.998704
       3.9978499       94.797952
       3.9991801       93.247835
       4.0005002       94.486009
       4.0018501       94.409978
       4.0031800       94.301452
       4.0045199       94.856091
       4.0058498       94.678011
       4.0071802       94.654589
       4.0085201       94.614247
       4.0098600       94.601934
       4.0112000       94.183567
       4.0125299       93.835975
       4.0138602       94.515488
       4.0152001       93.042561
       4.0165401       93.354640
       4.0178800       92.099658
       4.0192199       94.031601
       4.0205598       92.609159
       4.0219002       93.855186
       4.0232401       93.020583
       4.0245800       93.817327
       4.0259199       93.412739
       4.0272598       93.959355
       4.0286102       93.846118
       4.0299602       93.621985
       4.0313001       93.593643
       4.0326400       92.837360
       4.0339799       93.513793
       4.0353298       93.674009
       4.0366802       93.578824
       4.0380201       93.582409
       4.0393600       93.388266
       4.0407100       93.309411
       4.0420599       93.368214
       4.0434098       93.192532
       4.0447602       90.764986
       4.0461001       93.041390
       4.0474501       93.098932
       4.0488000       92.809967
       4.0501499       92.945790
       4.0514998       91.186234
       4.0528498       89.988590
       4.0542002       91.164449
       4.0555501       92.557765
       4.0569100       92.542833
       4.0582600       92.534742
       4.0596099       92.498428
       4.0609698       92.687753
       4.0623202       92.533736
       4.0636702       92.511116
       4.0650301       88.741301
       4.0663800       91.066974
       4.0677299       92.163808
       4.0690899       91.202093
       4.0704498       87.289046
       4.0718098       86.400764
       4.0731702       86.803512
       4.0745201       88.409830
       4.0758700       88.399198
       4.0772300       90.290816
       4.0785899       91.358530
       4.0799499       91.855621
       4.0813098       91.250373
       4.0826702       91.536156
       4.0840302       91.720827
       4.0853901       91.655148
       4.0867600       91.573452
       4.0881300       89.781770
       4.0894899       91.532803
       4.0908499       91.564588
       4.0922098       91.567810
       4.0935702       90.700910
       4.0949402       91.302511
       4.0963101       91.391400
       4.0976701       91.014597
       4.0990400       90.903122
       4.1004100       90.624890
       4.1017699       90.945879
       4.1031399       90.940527
       4.1045098       91.125147
       4.1058698       90.932737
       4.1072402       90.297459
       4.1086102       90.321959
       4.1099801       90.216512
       4.1113501       88.064238
       4.1127200       89.986203
       4.1140900       89.829130
       4.1154599       90.493920
       4.1168399       90.106793
       4.1182098       90.449288
       4.1195798       90.548922
       4.1209602       90.108975
       4.1223302       90.529256
       4.1237001       90.423821
       4.1250801       90.336062
       4.1264501       90.357290
       4.1278200       89.852926
       4.1292000       90.268128
       4.1305799       90.127015
       4.1319599       90.043336
       4.1333399       89.045301
       4.1347098       89.860017
       4.1360798       89.767292
       4.1374602       88.678532
       4.1388402       89.781980
       4.1402202       88.840027
       4.1416001       89.666669
       4.1429801       88.885909
       4.1443601       88.955820
       4.1457500       89.602650
       4.1471400       89.419575
       4.1485200       88.625661
       4.1499000       88.440444
       4.1512799       87.601079
       4.1526599       89.234398
       4.1540399       89.317293
       4.1554298       88.969900
       4.1568198       89.139690
       4.1581998       88.198282
       4.1595898       88.929240
       4.1609802       88.632059
       4.1623602       88.995430
       4.1637502       88.462326
       4.1651402       88.714141
       4.1665301       87.593835
       4.1679201       87.546157
       4.1693001       87.841412
       4.1706901       87.727090
       4.1720800       86.769942
       4.1734700       87.588795
       4.1748700       88.094068
       4.1762600       87.294023
       4.1776500       87.430596
       4.1790400       87.464205
       4.1804299       87.475200
       4.1818299       86.996445
       4.1832299       87.808536
       4.1846199       85.835904
       4.1860099       87.635888
       4.1874099       88.113455
       4.1888099       87.935569
       4.1901999       87.131966
       4.1915898       85.602753
       4.1929898       87.738539
       4.1943898       87.494900
       4.1957898       87.553481
       4.1971898       87.492360
       4.1985898       87.187338
       4.1999898       87.497297
       4.2013898       83.454735
       4.2027898       86.660836
       4.2041898       86.157057
       4.2055898       84.446218
       4.2069898       86.558651
       4.2083902       85.285487
       4.2097902       86.812807
       4.2112002       86.770056
       4.2126098       86.604539
       4.2140098       86.786005
       4.2154102       86.919385
       4.2168198       86.534945
       4.2182298       86.548741
       4.2196298       86.267652
       4.2210302       86.531099
       4.2224398       86.091049
       4.2238498       86.236208
       4.2252598       86.038405
       4.2266698       86.079708
       4.2280798       85.880093
       4.2294898       85.294481
       4.2308898       85.199785
       4.2322998       84.936622
       4.2337198       84.764906
       4.2351298       84.057472
       4.2365398       83.676566
       4.2379498       83.102290
       4.2393599       82.563379
       4.2407799       81.733271
       4.2421899       81.087680
       4.2435999       79.683267
       4.2450199       79.034835
       4.2464399       77.348548
       4.2478499       76.975734
       4.2492599       75.948561
       4.2506800       74.432093
       4.2521000       72.993872
       4.2535200       72.129285
       4.2549400       71.418885
       4.2563601       70.167801
       4.2577801       68.806383
       4.2591901       67.293006
       4.2606001       65.868911
       4.2620301       64.647572
       4.2634602       63.212891
       4.2648802       61.858355
       4.2663002       60.319664
       4.2677202       59.420303
       4.2691398       58.441723
       4.2705598       59.138537
       4.2719798       59.738575
       4.2734098       61.722878
       4.2748399       64.536904
       4.2762599       67.286262
       4.2776799       69.916002
       4.2791100       72.210089
       4.2805400       74.297014
       4.2819600       76.231872
       4.2833900       77.639121
       4.2848201       79.905570
       4.2862501       81.271641
       4.2876801       82.063328
       4.2891002       83.024021
       4.2905302       83.431001
       4.2919598       83.344288
       4.2933898       83.723051
       4.2948298       71.731452
       4.2962599       70.864280
       4.2976899       74.917434
       4.2991199       78.068232
       4.3005500       76.611556
       4.3019900       78.294081
       4.3034201       79.051955
       4.3048501       79.660226
       4.3062901       79.209352
       4.3077302       79.688602
       4.3091698       79.972248
       4.3105998       79.766656
       4.3120298       78.858828
       4.3134699       79.376670
       4.3149099       82.932887
       4.3163500       80.363006
       4.3177900       79.366096
       4.3192301       79.385966
       4.3206701       83.033816
       4.3221102       78.625013
       4.3235502       79.275377
       4.3249898       83.592950
       4.3264298       78.933047
       4.3278699       83.195907
       4.3293099       79.132179
       4.3307600       79.570405
       4.3322101       81.555389
       4.3336501       78.840703
       4.3350902       82.695498
       4.3365302       78.836833
       4.3379798       83.033123
       4.3394299       78.235636
       4.3408699       82.486098
       4.3423200       78.442456
       4.3437700       82.824383
       4.3452201       77.628779
       4.3466702       82.508525
       4.3481102       77.030054
       4.3495598       82.358633
       4.3510098       65.040336
       4.3524599       74.783298
       4.3539200       71.471602
       4.3553700       75.502506
       4.3568201       74.809311
       4.3582702       79.664760
       4.3597202       77.177673
       4.3611798       76.598323
       4.3626299       77.737414
       4.3640800       72.168036
       4.3655400       77.919892
       4.3670001       73.369527
       4.3684502       77.810297
       4.3699002       78.612456
       4.3713598       76.912391
       4.3728199       77.654525
       4.3742800       73.890114
       4.3757401       76.972063
       4.3772001       80.182273
       4.3786602       72.943666
       4.3801198       78.479059
       4.3815799       74.813254
       4.3830400       77.288921
       4.3845000       80.484056
       4.3859601       72.634604
       4.3874202       79.490828
       4.3888798       77.617734
       4.3903399       72.073368
       4.3917999       78.682527
       4.3932700       74.980595
       4.3947401       75.462084
       4.3962002       75.231280
       4.3976598       78.274098
       4.3991299       72.090499
       4.4006000       78.777036
       4.4020600       71.006717
       4.4035301       77.902011
       4.4050002       75.433674
       4.4064698       73.568835
       4.4079399       62.194355
       4.4094100       72.672923
       4.4108801       67.465308
       4.4123502       70.123936
       4.4138198       74.577064
       4.4152899       70.191546
       4.4167600       73.786297
       4.4182301       71.097629
       4.4197102       75.251474
       4.4211798       69.227131
       4.4226499       73.376811
       4.4241300       75.550445
       4.4256001       67.221924
       4.4270701       77.440653
       4.4285498       72.711515
       4.4300299       70.387541
       4.4315100       75.732804
       4.4329901       73.249739
       4.4344602       70.820977
       4.4359298       75.561434
       4.4374099       74.236217
       4.4388900       75.869780
       4.4403701       68.009367
       4.4418502       76.036439
       4.4433298       74.353999
       4.4448099       69.161771
       4.4462900       75.595753
       4.4477801       75.941885
       4.4492698       68.462263
       4.4507499       73.096353
       4.4522300       72.396311
       4.4537101       73.501401
       4.4552002       68.926910
       4.4566898       75.624061
       4.4581699       69.748746
       4.4596500       76.317114
       4.4611402       69.369523
       4.4626298       72.714487
       4.4641099       74.535278
       4.4656000       64.100093
       4.4670901       64.090445
       4.4685798       71.865457
       4.4700699       68.396812
       4.4715600       65.316386
       4.4730501       73.349078
       4.4745402       69.478123
       4.4760399       70.153187
       4.4775300       64.330055
       4.4790201       74.533443
       4.4805102       68.550914
       4.4819999       69.980186
       4.4835000       70.187142
       4.4850001       67.815371
       4.4864898       73.762768
       4.4879799       76.382292
       4.4894800       62.971195
       4.4909801       71.875509
       4.4924798       70.529444
       4.4939699       73.867800
       4.4954600       64.629662
       4.4969602       72.171121
       4.4984598       72.019849
       4.4999399       73.056670
       4.5014601       67.890340
       4.5029702       74.091922
       4.5044699       70.222280
       4.5059600       66.752203
       4.5074701       70.682393
       4.5089798       68.982373
       4.5104799       69.845318
       4.5119801       72.956319
       4.5134802       66.196445
       4.5149899       71.669393
       4.5164900       70.713797
       4.5180001       70.775010
       4.5195098       68.824975
       4.5210099       70.831256
       4.5225201       68.253796
       4.5240302       67.669576
       4.5255399       61.701611
       4.5270400       63.191203
       4.5285501       66.260964
       4.5300598       70.580724
       4.5315700       65.647857
       4.5330701       65.730974
       4.5345898       67.638178
       4.5361099       69.760690
       4.5376201       72.052765
       4.5391302       63.167378
       4.5406399       72.026003
       4.5421500       65.763617
       4.5436702       70.215871
       4.5451798       65.401173
       4.5467000       68.320355
       4.5482202       70.343835
       4.5497298       68.360635
       4.5512400       66.570833
       4.5527601       66.741856
       4.5542798       68.187026
       4.5558000       74.499146
       4.5573201       66.119783
       4.5588398       66.274737
       4.5603600       70.743395
       4.5618701       67.318564
       4.5633898       68.714590
       4.5649199       68.712681
       4.5664401       67.236294
       4.5679598       67.692850
       4.5694900       66.634943
       4.5710101       66.907186
       4.5725298       68.110200
       4.5740600       69.387108
       4.5755901       65.126305
       4.5771098       71.417123
       4.5786300       68.617360
       4.5801601       63.111404
       4.5816898       67.790086
       4.5832200       70.221553
       4.5847502       62.681219
       4.5862799       65.047853
       4.5878100       63.991151
       4.5893402       59.713398
       4.5908699       67.773858
       4.5924001       69.762786
       4.5939298       64.062864
       4.5954599       61.264925
       4.5969901       68.518186
       4.5985198       69.588184
       4.6000500       63.119910
       4.6015801       64.707341
       4.6031098       67.797854
       4.6046500       65.950135
       4.6061902       72.224856
       4.6077199       65.704689
       4.6092501       59.868699
       4.6107898       71.567753
       4.6123300       65.576241
       4.6138601       67.261852
       4.6153998       64.815004
       4.6169400       64.268826
       4.6184702       69.148674
       4.6200099       64.307560
       4.6215601       66.395134
       4.6230998       68.852408
       4.6246400       65.193313
       4.6261802       59.776537
       4.6277199       71.580083
       4.6292601       68.816901
       4.6308198       62.021866
       4.6323600       69.963498
       4.6339002       64.250786
       4.6354399       69.622333
       4.6369801       61.310506
       4.6385298       70.164028
       4.6400800       64.323351
       4.6416302       68.670992
       4.6431699       61.956517
       4.6447201       67.829599
       4.6462698       66.845178
       4.6478200       63.821606
       4.6493702       61.969194
       4.6509099       67.111091
       4.6524601       62.453842
       4.6540098       64.837914
       4.6555600       66.997860
       4.6571202       65.301055
       4.6586699       66.910641
       4.6602201       58.228085
       4.6617799       67.876890
       4.6633301       67.804598
       4.6648798       65.816500
       4.6664400       61.234958
       4.6680102       61.659615
       4.6695600       69.729677
       4.6711102       66.736061
       4.6726699       65.374734
       4.6742201       64.428786
       4.6757798       67.657735
       4.6773400       66.347518
       4.6788998       63.328014
       4.6804600       62.508128
       4.6820202       68.131297
       4.6835799       65.432418
       4.6851401       62.782359
       4.6867099       69.390359
       4.6882701       65.423969
       4.6898298       65.736559
       4.6914001       62.041810
       4.6929598       67.125802
       4.6945200       68.266120
       4.6960902       64.810800
       4.6976500       67.706129
       4.6992102       60.043257
       4.7007799       66.093106
       4.7023501       66.481097
       4.7039199       64.156515
       4.7054801       68.860692
       4.7070599       63.029413
       4.7086301       61.137278
       4.7101998       68.152122
       4.7117600       61.073890
       4.7133298       61.700162
       4.7149100       65.021250
       4.7164798       66.065230
       4.7180500       58.705005
       4.7196102       63.052408
       4.7211900       66.498211
       4.7227602       68.089756
       4.7243400       64.824397
       4.7259102       61.945403
       4.7274899       65.942004
       4.7290602       63.271546
       4.7306399       68.514958
       4.7322202       63.809338
       4.7338099       59.252178
       4.7353802       64.248308
       4.7369599       69.035221
       4.7385302       62.613114
       4.7401099       62.850162
       4.7416902       61.790426
       4.7432799       69.361323
       4.7448602       61.166001
       4.7464299       65.962584
       4.7480202       66.195309
       4.7495999       63.131405
       4.7511802       62.934262
       4.7527599       65.940930
       4.7543502       65.043126
       4.7559400       64.227944
       4.7575202       64.216080
       4.7591100       62.952143
       4.7607002       66.294636
       4.7622800       64.463492
       4.7638698       63.402631
       4.7654500       62.795729
       4.7670498       62.174417
       4.7686400       67.118114
       4.7702298       62.779404
       4.7718201       66.008899
       4.7734098       61.896066
       4.7749901       63.521697
       4.7765899       62.993957
       4.7781801       62.653763
       4.7797699       60.862314
       4.7813601       62.770728
       4.7829599       63.824702
       4.7845602       66.523252
       4.7861500       58.040851
       4.7877498       63.007293
       4.7893500       65.978971
       4.7909498       66.867770
       4.7925401       59.423127
       4.7941399       61.677468
       4.7957401       60.670926
       4.7973399       64.081314
       4.7989302       68.611825
       4.8005300       60.264208
       4.8021302       60.357217
       4.8037300       63.637332
       4.8053298       61.129278
       4.8069201       62.889294
       4.8085299       65.522586
       4.8101401       61.918107
       4.8117399       65.318317
       4.8133502       59.354357
       4.8149500       63.982947
       4.8165498       63.159520
       4.8181601       65.873076
       4.8197699       61.665035
       4.8213701       66.173842
       4.8229799       60.502210
       4.8245802       59.431934
       4.8261900       68.657327
       4.8277998       59.227165
       4.8294101       68.747512
       4.8310199       62.179252
       4.8326302       63.964253
       4.8342500       58.254881
       4.8358598       66.440760
       4.8374701       62.008422
       4.8390899       65.430736
       4.8406901       62.099170
       4.8422999       66.430323
       4.8439202       56.715980
       4.8455300       63.859323
       4.8471398       63.081886
       4.8487601       59.542000
       4.8503799       64.286452
       4.8520002       66.493518
       4.8536201       60.241400
       4.8552399       61.461352
       4.8568602       59.788947
       4.8584800       65.222831
       4.8600998       63.174839
       4.8617201       64.619594
       4.8633399       57.292506
       4.8649602       58.044641
       4.8665800       65.371876
       4.8681998       63.625377
       4.8698201       62.601330
       4.8714399       61.559327
       4.8730602       62.193793
       4.8746800       61.765351
       4.8763099       57.738340
       4.8779402       62.938881
       4.8795600       64.329794
       4.8811998       61.496626
       4.8828301       62.221822
       4.8844500       61.557304
       4.8860798       62.716851
       4.8877101       61.086242
       4.8893299       61.053218
       4.8909602       61.479620
       4.8925900       64.699034
       4.8942199       62.983230
       4.8958502       62.160939
       4.8974800       59.156657
       4.8991199       61.594578
       4.9007502       62.997895
       4.9023900       65.369194
       4.9040198       63.778820
       4.9056501       58.378778
       4.9072900       61.770204
       4.9089298       57.771802
       4.9105601       63.492469
       4.9122000       63.019924
       4.9138398       61.155819
       4.9154701       56.683150
       4.9171000       62.438631
       4.9187498       58.001048
       4.9203901       59.277662
       4.9220300       63.846493
       4.9236798       64.261803
       4.9253201       59.049614
       4.9269600       57.530464
       4.9285998       59.461549
       4.9302402       65.041211
       4.9318900       60.476283
       4.9335299       63.091563
       4.9351702       60.410326
       4.9368100       59.848903
       4.9384599       56.672200
       4.9401102       64.544313
       4.9417601       60.944652
       4.9434099       57.890806
       4.9450498       63.267660
       4.9466901       60.762521
       4.9483500       55.190012
       4.9499998       64.802061
       4.9516401       61.807165
       4.9533000       61.250492
       4.9549499       57.322206
       4.9566002       62.433102
       4.9582601       58.792292
       4.9599099       58.808617
       4.9615698       62.439267
       4.9632201       60.620527
       4.9648700       64.628577
       4.9665298       59.901604
       4.9681802       58.581410
       4.9698300       60.006789
       4.9714999       61.182797
       4.9731498       62.127887
       4.9748101       60.912816
       4.9764700       64.134793
       4.9781299       56.015535
       4.9797802       57.236260
       4.9814401       62.621399
       4.9831100       58.394272
       4.9847698       62.333116
       4.9864302       60.634402
       4.9880800       62.618864
       4.9897499       55.606072
       4.9914098       56.116823
       4.9930801       60.050376
       4.9947400       60.052876
       4.9964099       63.164867
       4.9980698       62.674298
       4.9997201       55.956522
       5.0014000       57.040963
       5.0030799       59.190306
       5.0047402       63.691476
       5.0064001       59.382267
       5.0080700       58.650639
       5.0097499       57.967138
       5.0114298       61.847059
       5.0130901       57.427119
       5.0147500       57.634195
       5.0164299       61.428544
       5.0180998       56.602942
       5.0197701       61.628858
       5.0214500       57.515702
       5.0231199       59.843113
       5.0247998       58.959764
       5.0264702       62.950677
       5.0281501       56.490234
       5.0298200       58.441246
       5.0314999       59.943912
       5.0331702       57.453188
       5.0348501       61.598505
       5.0365200       61.245504
       5.0382099       62.042020
       5.0398998       57.192918
       5.0415702       60.800039
       5.0432501       54.636242
       5.0449200       63.143826
       5.0466099       57.328235
       5.0482998       62.257585
       5.0499701       61.942034
       5.0516601       60.254991
       5.0533500       55.713820
       5.0550299       55.646079
       5.0567098       60.663869
       5.0584002       57.274676
       5.0600901       59.598576
       5.0617700       60.827921
       5.0634599       61.099356
       5.0651498       57.964922
       5.0668402       52.524850
       5.0685201       61.543781
       5.0702100       60.184909
       5.0719099       59.128190
       5.0735998       60.768509
       5.0752902       57.150121
       5.0769901       56.880162
       5.0786700       57.596210
       5.0803599       59.716734
       5.0820599       58.707408
       5.0837498       55.337813
       5.0854402       62.115477
       5.0871401       58.439109
       5.0888400       55.927288
       5.0905399       61.455676
       5.0922399       54.553399
       5.0939398       57.656320
       5.0956202       58.246767
       5.0973101       57.084641
       5.0990100       59.656078
       5.1007099       58.281303
       5.1024098       58.849919
       5.1041098       58.747381
       5.1058202       54.592661
       5.1075401       58.154099
       5.1092401       56.268914
       5.1109400       60.758657
       5.1126399       56.488279
       5.1143398       59.516767
       5.1160402       59.306566
       5.1177502       56.875537
       5.1194601       54.945259
       5.1211600       56.589192
       5.1228600       58.636525
       5.1245799       57.576073
       5.1262898       59.048295
       5.1279898       59.753411
       5.1297002       59.282145
       5.1314101       55.782436
       5.1331201       52.780745
       5.1348400       57.704356
       5.1365499       55.913395
       5.1382599       61.269993
       5.1399798       60.077945
       5.1416898       59.466407
       5.1434002       54.805521
       5.1451101       52.856617
       5.1468201       55.643988
       5.1485500       59.770815
       5.1502600       58.099881
       5.1519699       57.564914
       5.1536999       58.451587
       5.1554098       57.190230
       5.1571202       60.006880
       5.1588502       54.288230
       5.1605701       56.485813
       5.1623001       56.211014
       5.1640100       60.814784
       5.1657200       56.997314
       5.1674500       55.813102
       5.1691699       57.877146
       5.1708999       58.494015
       5.1726298       56.535821
       5.1743498       57.192781
       5.1760702       59.040375
       5.1778002       57.061601
       5.1795201       56.238179
       5.1812501       58.590887
       5.1829700       57.147297
       5.1847000       56.580010
       5.1864200       55.950834
       5.1881599       53.783263
       5.1898999       58.107757
       5.1916299       56.770789
       5.1933498       58.518470
       5.1950798       57.039685
       5.1968098       60.881082
       5.1985502       54.620372
       5.2002702       52.796859
       5.2020102       58.390977
       5.2037501       53.435308
       5.2054701       56.884566
       5.2072101       58.083648
       5.2089500       58.498299
       5.2106900       56.905140
       5.2124200       52.131876
       5.2141600       54.041165
       5.2158999       59.156987
       5.2176399       53.848806
       5.2193799       59.200676
       5.2211099       56.783801
       5.2228599       55.596253
       5.2245998       55.252491
       5.2263398       55.192910
       5.2280898       56.578424
       5.2298298       56.165609
       5.2315602       54.844454
       5.2333102       57.980536
       5.2350602       57.022849
       5.2368102       56.256754
       5.2385502       58.000134
       5.2402902       53.045686
       5.2420402       55.635437
       5.2437901       58.344208
       5.2455401       55.393258
       5.2472901       54.843789
       5.2490401       55.373939
       5.2507901       59.333141
       5.2525401       54.517500
       5.2542901       57.218902
       5.2560401       53.743290
       5.2577901       54.055591
       5.2595401       58.301849
       5.2612901       54.849295
       5.2630501       55.254798
       5.2648101       58.545727
       5.2665601       55.874513
       5.2683101       53.398102
       5.2700601       55.490693
       5.2718201       55.787857
       5.2735901       54.120406
       5.2753401       59.031909
       5.2771001       55.342534
       5.2788601       58.837964
       5.2806101       54.085916
       5.2823701       52.509645
       5.2841401       57.058669
       5.2859001       53.306207
       5.2876601       55.796187
       5.2894201       57.405050
       5.2911901       57.671366
       5.2929502       53.826947
       5.2947102       52.851327
       5.2964702       53.345430
       5.2982502       57.909119
       5.3000102       54.976891
       5.3017702       55.741207
       5.3035498       55.629374
       5.3053098       55.623351
       5.3070798       55.097844
       5.3088498       51.572879
       5.3106298       54.999124
       5.3123999       54.878467
       5.3141599       56.313398
       5.3159299       52.021662
       5.3176999       57.105602
       5.3194699       54.691608
       5.3212500       57.705481
       5.3230200       53.288519
       5.3248000       55.676222
       5.3265700       52.583039
       5.3283501       53.473673
       5.3301201       56.362195
       5.3319001       53.015367
       5.3336701       56.506081
       5.3354502       56.821626
       5.3372402       52.436710
       5.3390298       53.441587
       5.3407998       51.081634
       5.3425798       55.476653
       5.3443499       55.572406
       5.3461399       53.459434
       5.3479199       55.995375
       5.3497000       55.892883
       5.3514900       52.214526
       5.3532701       53.635400
       5.3550501       50.704172
       5.3568401       54.315828
       5.3586202       54.481686
       5.3604102       56.283715
       5.3621998       53.212760
       5.3639898       55.248048
       5.3657799       53.427410
       5.3675599       53.143360
       5.3693500       54.820698
       5.3711400       51.864270
       5.3729401       54.404007
       5.3747201       56.936812
       5.3765101       54.916076
       5.3783102       52.152030
       5.3800998       51.521013
       5.3818898       53.832856
       5.3836899       54.692278
       5.3854899       56.438988
       5.3872700       52.806843
       5.3890600       53.376761
       5.3908601       54.678909
       5.3926601       55.398565
       5.3944602       52.168019
       5.3962598       52.891607
       5.3980598       53.021901
       5.3998599       57.154223
       5.4016600       51.907425
       5.4034600       55.290890
       5.4052601       53.209107
       5.4070601       56.057292
       5.4088602       51.467921
       5.4106598       52.590795
       5.4124599       53.165645
       5.4142699       53.997629
       5.4160900       55.033711
       5.4178901       52.945098
       5.4196901       54.727109
       5.4215002       53.503288
       5.4233098       51.951608
       5.4251099       53.172668
       5.4269199       50.025762
       5.4287400       54.994619
       5.4305401       54.223108
       5.4323502       54.746746
       5.4341602       53.660765
       5.4359798       55.386894
       5.4377899       51.345894
       5.4396000       50.488375
       5.4414101       55.314380
       5.4432201       50.939669
       5.4450402       54.284935
       5.4468498       54.372023
       5.4486699       55.880536
       5.4504900       52.412903
       5.4523001       51.787477
       5.4541202       51.044735
       5.4559398       52.101846
       5.4577498       54.520949
       5.4595699       51.433720
       5.4614000       54.382739
       5.4632201       53.554193
       5.4650402       53.350771
       5.4668498       50.807073
       5.4686799       51.773562
       5.4705000       53.531550
       5.4723201       51.279022
       5.4741502       53.726744
       5.4759798       53.272251
       5.4777999       51.555162
       5.4796200       54.438787
       5.4814501       51.765153
       5.4832702       52.039253
       5.4850998       52.368401
       5.4869399       53.065880
       5.4887700       53.509078
       5.4906001       51.234657
       5.4924202       54.283952
       5.4942498       51.647779
       5.4960899       52.883453
       5.4979200       52.202492
       5.4994102       50.652392
