wavelength       flux
  microns         mJy
      
      0.80013400       1150.9777
      0.80040097       1225.9385
      0.80066800       1222.9656
      0.80093497       1214.1686
      0.80120200       1250.5775
      0.80146903       1229.1919
      0.80173600       1262.7462
      0.80200303       1235.0060
      0.80227000       1236.9365
      0.80253798       1259.4705
      0.80280501       1177.8877
      0.80307299       1179.0381
      0.80334002       1255.3122
      0.80360800       1218.3490
      0.80387598       1259.9280
      0.80414498       1247.7220
      0.80441201       1255.7899
      0.80467999       1210.3625
      0.80494899       1122.0957
      0.80521703       1218.9338
      0.80548501       1251.2824
      0.80575401       1229.1268
      0.80602199       1264.7532
      0.80629098       1244.3104
      0.80655998       1236.1799
      0.80682898       1252.1346
      0.80709797       1214.3457
      0.80736703       1167.1985
      0.80763602       1181.8111
      0.80790502       1253.1657
      0.80817401       1229.9408
      0.80844402       1222.6620
      0.80871302       1185.9055
      0.80898303       1274.9565
      0.80925298       1181.1164
      0.80952299       1148.3524
      0.80979198       1219.2523
      0.81006199       1207.3541
      0.81033200       1237.3105
      0.81060201       1217.2553
      0.81087202       1223.9101
      0.81114298       1204.5815
      0.81141299       1253.1748
      0.81168300       1195.2439
      0.81195402       1211.8436
      0.81222498       1248.6520
      0.81249499       1264.3751
      0.81276602       1224.3139
      0.81303698       1244.3755
      0.81330800       1226.4040
      0.81357902       1276.6844
      0.81384999       1228.0840
      0.81412202       1240.2133
      0.81439298       1243.6145
      0.81466401       1261.4661
      0.81493598       1257.4690
      0.81520802       1182.7667
      0.81547898       1256.2186
      0.81575102       1243.5218
      0.81602299       1274.0270
      0.81629598       1212.6777
      0.81656700       1252.0147
      0.81683898       1267.1511
      0.81711203       1246.8312
      0.81738400       1272.3674
      0.81765699       1243.2911
      0.81792998       1278.1619
      0.81820202       1208.0932
      0.81847501       1205.0809
      0.81874698       1269.4368
      0.81901997       1204.6535
      0.81929302       1315.1983
      0.81956702       1183.5403
      0.81984001       1189.1853
      0.82011300       1234.4489
      0.82038599       1259.0957
      0.82066000       1197.2780
      0.82093298       1226.1036
      0.82120699       1268.7959
      0.82147998       1196.0870
      0.82175398       1261.8942
      0.82202798       1306.5189
      0.82230198       1171.9886
      0.82257599       1279.5076
      0.82284999       1311.0137
      0.82312500       1263.7751
      0.82339901       1209.7484
      0.82367402       1272.9751
      0.82394898       1281.6815
      0.82422298       1265.3136
      0.82449800       1246.6942
      0.82477301       1317.9564
      0.82504803       1252.1537
      0.82532299       1273.3847
      0.82559800       1286.9294
      0.82587302       1268.1088
      0.82614797       1302.1144
      0.82642299       1311.0679
      0.82669902       1290.5325
      0.82697397       1263.6534
      0.82725000       1302.6894
      0.82752699       1260.4676
      0.82780200       1279.8625
      0.82807702       1305.9371
      0.82835299       1289.4398
      0.82862997       1309.6256
      0.82890600       1268.7810
      0.82918298       1293.5145
      0.82945901       1269.1740
      0.82973498       1275.7675
      0.83001202       1251.0508
      0.83028901       1304.0320
      0.83056498       1279.1943
      0.83084202       1218.5937
      0.83111900       1239.0089
      0.83139598       1250.5539
      0.83167398       1289.1014
      0.83195102       1287.2004
      0.83222800       1260.2471
      0.83250499       1303.6406
      0.83278298       1269.6690
      0.83306098       1199.4631
      0.83333802       1228.1387
      0.83361602       1244.5360
      0.83389300       1278.6364
      0.83417100       1270.4483
      0.83444899       1282.2409
      0.83472800       1253.9675
      0.83500600       1215.5935
      0.83528399       1324.9121
      0.83556300       1276.0715
      0.83584100       1310.7542
      0.83612001       1290.0546
      0.83639902       1293.7306
      0.83667803       1180.4880
      0.83695698       1343.7117
      0.83723497       1274.2928
      0.83751500       1308.6434
      0.83779401       1330.0973
      0.83807302       1261.2686
      0.83835298       1258.5635
      0.83863199       1251.1138
      0.83891100       1146.1230
      0.83919102       1265.2340
      0.83947098       1354.6347
      0.83974999       1338.8362
      0.84003001       1256.1296
      0.84030998       1271.0869
      0.84059000       1321.8794
      0.84087002       1327.2026
      0.84115100       1341.3245
      0.84143102       1263.8986
      0.84171200       1342.4976
      0.84199202       1267.4936
      0.84227300       1307.8534
      0.84255397       1268.9330
      0.84283501       1225.1832
      0.84311599       1357.4834
      0.84339702       1339.6766
      0.84367800       1171.1220
      0.84395897       1351.3075
      0.84424001       1246.3835
      0.84452200       1344.7129
      0.84480298       1306.4905
      0.84508502       1327.3088
      0.84536600       1331.9083
      0.84564799       1351.2713
      0.84592998       1306.6268
      0.84621298       1339.6731
      0.84649402       1352.1594
      0.84677601       1309.9875
      0.84705800       1208.5817
      0.84734100       1308.4288
      0.84762299       1375.0043
      0.84790599       1351.3489
      0.84818900       1337.7386
      0.84847099       1311.8318
      0.84875399       1359.4832
      0.84903699       1346.2940
      0.84931999       1362.9101
      0.84960300       1350.6712
      0.84988600       1139.4334
      0.85017002       1131.0384
      0.85045302       1313.9999
      0.85073602       1334.2776
      0.85101998       1372.4959
      0.85130399       1358.9190
      0.85158700       1231.7598
      0.85187101       1293.4706
      0.85215598       1292.4452
      0.85243899       1356.2467
      0.85272300       1351.5740
      0.85300797       1300.8719
      0.85329199       1341.9595
      0.85357702       1352.7821
      0.85386097       1284.5736
      0.85414600       1181.5217
      0.85443097       771.66922
      0.85471499       1179.6964
      0.85500002       1259.6008
      0.85528499       1342.1343
      0.85557002       1375.5742
      0.85585600       1320.9577
      0.85614097       1373.3481
      0.85642600       1354.3328
      0.85671198       1355.3305
      0.85699701       1349.5160
      0.85728300       1371.8739
      0.85756898       1354.0765
      0.85785401       1363.1761
      0.85813999       1392.3959
      0.85842597       1310.0223
      0.85871202       1359.8076
      0.85899901       1369.6241
      0.85928500       1372.4853
      0.85957199       1371.1926
      0.85985798       1362.0012
      0.86014497       1354.3459
      0.86043203       1367.2388
      0.86071801       1334.8529
      0.86100501       1376.9819
      0.86129200       1285.7942
      0.86157900       1386.0267
      0.86186701       1375.5942
      0.86215401       1383.9760
      0.86244100       1328.9702
      0.86272901       1383.3673
      0.86301601       1386.5860
      0.86330402       1383.2636
      0.86359102       1377.6953
      0.86387998       1378.0648
      0.86416698       1376.4249
      0.86445498       1354.1551
      0.86474299       1410.0538
      0.86503202       1325.4181
      0.86532098       1397.0029
      0.86560899       1369.3433
      0.86589700       1372.2933
      0.86618602       1250.2355
      0.86647499       817.68945
      0.86676401       1287.9877
      0.86705297       1358.1638
      0.86734200       1364.3575
      0.86763102       1251.5621
      0.86791998       1384.9452
      0.86820900       1326.4298
      0.86849898       1355.8213
      0.86878800       1382.3762
      0.86907798       1145.3549
      0.86936700       1353.1767
      0.86965698       1383.7190
      0.86994702       1422.2347
      0.87023699       1300.8101
      0.87052798       1384.5421
      0.87081701       1409.8624
      0.87110698       1406.4063
      0.87139797       1312.4063
      0.87168801       1387.0410
      0.87197900       1379.2058
      0.87226897       1405.8670
      0.87256002       1406.2514
      0.87285101       1426.9016
      0.87314200       1367.9979
      0.87343299       1425.6269
      0.87372398       1332.1522
      0.87401497       1387.8612
      0.87430698       1410.7841
      0.87459898       1384.4495
      0.87489003       1400.6712
      0.87518102       1398.7795
      0.87547302       1360.5296
      0.87576598       1432.7142
      0.87605798       1344.6668
      0.87634999       1438.8810
      0.87664098       1373.9661
      0.87693298       1389.1421
      0.87722498       1417.5114
      0.87751800       1330.5587
      0.87781000       1418.3573
      0.87810302       1412.5048
      0.87839597       1441.5196
      0.87868899       1414.5267
      0.87898201       1428.7830
      0.87927502       1381.6855
      0.87956798       1376.7581
      0.87986100       1418.4025
      0.88015401       1436.1115
      0.88044798       1437.4551
      0.88074100       1349.8437
      0.88103402       1230.7613
      0.88132799       1427.5596
      0.88162202       1438.9175
      0.88191599       1444.9900
      0.88220900       1402.3412
      0.88250399       1404.1649
      0.88279802       1314.1875
      0.88309199       1443.1458
      0.88338602       1459.3595
      0.88368100       1418.3005
      0.88397598       1359.5360
      0.88427001       1413.4483
      0.88456500       1439.4775
      0.88485998       1418.7907
      0.88515502       1450.0281
      0.88545001       1454.8483
      0.88574499       1456.9044
      0.88604099       1453.1135
      0.88633603       1429.4785
      0.88663101       1391.8574
      0.88692701       1385.7898
      0.88722199       1429.8085
      0.88751799       1464.4571
      0.88781399       1426.7811
      0.88810998       1408.6391
      0.88840598       1457.8205
      0.88870198       1450.5318
      0.88899899       1464.5719
      0.88929498       1455.8559
      0.88959098       1437.6114
      0.88988698       1458.8662
      0.89018399       1462.7724
      0.89048100       1463.5281
      0.89077801       1469.6735
      0.89107502       1448.5854
      0.89137203       1455.4161
      0.89166898       1471.4908
      0.89196599       1463.8898
      0.89226300       1410.2660
      0.89256102       1424.7603
      0.89285898       1437.9067
      0.89315599       1429.3630
      0.89345300       1424.8122
      0.89375198       1476.6182
      0.89404899       1474.7793
      0.89434701       1472.2473
      0.89464498       1395.1983
      0.89494300       1408.8909
      0.89524198       1453.1656
      0.89554000       1486.9983
      0.89583898       1472.9078
      0.89613801       1470.3760
      0.89643598       1458.4269
      0.89673501       1454.2982
      0.89703399       1436.1518
      0.89733303       1485.7332
      0.89763200       1456.9385
      0.89793098       1409.6075
      0.89823103       1458.9030
      0.89853001       1479.6973
      0.89882898       1455.0131
      0.89912897       1443.4642
      0.89942902       1473.1076
      0.89972800       1456.3267
      0.90002799       1465.8004
      0.90032798       1362.9542
      0.90062898       1487.8902
      0.90092897       1475.1679
      0.90122998       1371.0213
      0.90153003       1387.5836
      0.90183002       1406.2798
      0.90213102       1466.7310
      0.90243101       1428.4747
      0.90273201       1469.3132
      0.90303302       1463.3147
      0.90333402       1475.8185
      0.90363598       1502.9463
      0.90393698       1455.1719
      0.90423799       1503.2405
      0.90453899       1502.2731
      0.90484101       1495.3877
      0.90514201       1498.7909
      0.90544498       1469.3485
      0.90574598       1500.7468
      0.90604699       1486.1282
      0.90635002       1432.7836
      0.90665197       1495.6960
      0.90695399       1493.3787
      0.90725601       1478.1282
      0.90755898       1504.3887
      0.90786099       1505.1668
      0.90816402       1413.3158
      0.90846699       1510.0801
      0.90877002       1478.1902
      0.90907300       1333.3048
      0.90937603       1464.4420
      0.90967900       1446.8238
      0.90998203       1499.2313
      0.91028500       1442.6014
      0.91058898       1468.6063
      0.91089201       1451.1794
      0.91119599       1471.4911
      0.91149998       1450.2349
      0.91180301       1486.8789
      0.91210699       1425.3504
      0.91241097       1512.0881
      0.91271502       1478.3415
      0.91302001       1514.6083
      0.91332400       1509.6404
      0.91362798       1510.5089
      0.91393298       1496.5525
      0.91423798       1426.7384
      0.91454202       1430.9598
      0.91484702       1430.8124
      0.91515201       1437.8749
      0.91545701       1487.7708
      0.91576201       1434.9717
      0.91606802       1468.0958
      0.91637301       1485.9282
      0.91667801       1445.2752
      0.91698402       1388.9437
      0.91728997       1402.0378
      0.91759598       1348.1839
      0.91790098       1454.3798
      0.91820699       1440.1642
      0.91851300       1425.8093
      0.91881901       1459.7558
      0.91912597       1418.4478
      0.91943198       1423.5835
      0.91973901       1462.5120
      0.92004502       1389.7236
      0.92035198       1441.9921
      0.92065901       1426.0253
      0.92096603       1428.0635
      0.92127299       1361.1809
      0.92158002       1405.5256
      0.92188698       1407.2915
      0.92219400       1407.7324
      0.92250198       1521.1928
      0.92280900       1377.3839
      0.92311698       1430.9372
      0.92342401       1390.8934
      0.92373198       1474.8022
      0.92404002       1434.7820
      0.92434800       1406.6982
      0.92465597       1482.6239
      0.92496401       1410.0435
      0.92527300       1452.5122
      0.92558098       1488.6672
      0.92589003       1364.6360
      0.92619801       1385.1725
      0.92650700       1418.5341
      0.92681599       1497.8536
      0.92712498       1508.1090
      0.92743403       1427.9572
      0.92774302       1517.8529
      0.92805201       1443.6825
      0.92836201       1442.6684
      0.92867100       1544.5379
      0.92898101       1427.2490
      0.92929000       1410.3056
      0.92960000       1479.8764
      0.92991000       1412.2640
      0.93022001       1525.5902
      0.93053001       1499.7353
      0.93084002       1427.7793
      0.93115002       1539.1817
      0.93146098       1478.1748
      0.93177098       1513.7496
      0.93208200       1437.2178
      0.93239301       1492.4261
      0.93270302       1493.1669
      0.93301398       1451.9621
      0.93332499       1561.9799
      0.93363601       1447.3688
      0.93394798       1516.3482
      0.93425900       1521.2968
      0.93457001       1509.3366
      0.93488199       1503.4293
      0.93519300       1450.8804
      0.93550599       1536.2392
      0.93581700       1467.2658
      0.93612897       1470.5716
      0.93644100       1455.9738
      0.93675297       1511.4470
      0.93706501       1483.2555
      0.93737799       1495.0537
      0.93769002       1491.8339
      0.93800300       1534.1812
      0.93831599       1460.9972
      0.93862802       1475.0584
      0.93894100       1503.0319
      0.93925399       1514.6573
      0.93956703       1466.2669
      0.93988001       1450.7209
      0.94019401       1525.2045
      0.94050699       1482.7149
      0.94081998       1432.1280
      0.94113398       1512.6545
      0.94144797       1417.1148
      0.94176102       1363.1162
      0.94207501       1477.8586
      0.94238901       1470.9792
      0.94270402       1484.4262
      0.94301802       1535.6039
      0.94333202       1430.5884
      0.94364703       1473.0082
      0.94396198       1465.1063
      0.94427598       1456.2938
      0.94459099       1476.4472
      0.94490600       1451.5497
      0.94522101       1501.8140
      0.94553602       1481.3562
      0.94585103       1499.7656
      0.94616598       1514.7819
      0.94648099       1460.9483
      0.94679701       1527.1026
      0.94711298       1501.9576
      0.94742799       1560.3356
      0.94774401       1526.3229
      0.94805998       1484.8358
      0.94837600       1516.9744
      0.94869298       1507.5805
      0.94900799       1473.6774
      0.94932503       1578.9851
      0.94964099       1495.7840
      0.94995803       1533.1098
      0.95027399       1536.8456
      0.95059103       1496.1341
      0.95090801       1537.9387
      0.95122498       1467.9690
      0.95154202       1533.7982
      0.95185900       1567.0391
      0.95217699       1472.2814
      0.95249403       1593.6454
      0.95281100       1504.6666
      0.95312899       1512.3867
      0.95344698       1598.1412
      0.95376402       1454.4364
      0.95408201       1587.6034
      0.95440000       1557.3246
      0.95471799       1421.0158
      0.95503700       1521.0624
      0.95535499       1526.4915
      0.95567399       1541.2369
      0.95599198       1510.9914
      0.95631099       1533.4768
      0.95662999       1538.0120
      0.95694900       1581.5240
      0.95726800       1490.5139
      0.95758700       1478.9116
      0.95790601       1563.0348
      0.95822501       1523.5466
      0.95854402       1569.1865
      0.95886397       1525.4419
      0.95918298       1563.4228
      0.95950300       1599.0592
      0.95982301       1530.4788
      0.96014398       1483.8037
      0.96046299       1574.3337
      0.96078300       1518.3320
      0.96110302       1518.5068
      0.96142399       1607.6144
      0.96174401       1579.7038
      0.96206498       1567.9042
      0.96238601       1550.6284
      0.96270698       1517.5508
      0.96302801       1547.4844
      0.96334898       1613.7844
      0.96367002       1533.4604
      0.96399099       1440.4971
      0.96431202       1593.0851
      0.96463299       1572.8274
      0.96495599       1486.1533
      0.96527702       1581.2452
      0.96559799       1534.3417
      0.96592098       1548.9264
      0.96624202       1540.4163
      0.96656400       1524.7535
      0.96688598       1576.9228
      0.96720898       1573.1313
      0.96753198       1575.1044
      0.96785402       1467.7483
      0.96817601       1597.4970
      0.96849900       1576.2876
      0.96882200       1592.7313
      0.96914500       1532.7843
      0.96946800       1545.0134
      0.96979100       1588.0633
      0.97011399       1608.9991
      0.97043800       1569.3231
      0.97076100       1497.4753
      0.97108501       1626.5905
      0.97140801       1622.6540
      0.97173202       1573.6563
      0.97205698       1541.3799
      0.97237998       1585.5924
      0.97270399       1612.6257
      0.97302800       1512.7193
      0.97335303       1588.0520
      0.97367698       1563.6743
      0.97400200       1515.2347
      0.97432703       1626.3371
      0.97465199       1521.7645
      0.97497600       1517.1779
      0.97530198       1625.0822
      0.97562701       1582.9500
      0.97595203       1601.4153
      0.97627699       1598.7185
      0.97660202       1548.5783
      0.97692800       1642.8601
      0.97725302       1515.4774
      0.97757900       1614.1100
      0.97790498       1641.7907
      0.97823101       1575.5940
      0.97855699       1507.9923
      0.97888398       1524.8793
      0.97921002       1591.6351
      0.97953600       1599.9502
      0.97986299       1633.3859
      0.98018998       1589.5970
      0.98051602       1618.3086
      0.98084301       1624.0612
      0.98117000       1627.4691
      0.98149699       1613.1208
      0.98182398       1628.3275
      0.98215199       1638.0546
      0.98247898       1615.6411
      0.98280698       1582.9274
      0.98313397       1640.1490
      0.98346102       1586.3395
      0.98378998       1613.5010
      0.98411798       1640.9327
      0.98444498       1621.5853
      0.98477298       1631.4430
      0.98510098       1610.1572
      0.98543000       1632.9424
      0.98575801       1626.6687
      0.98608702       1674.7527
      0.98641598       1596.5189
      0.98674500       1653.5110
      0.98707402       1656.2949
      0.98740298       1616.6444
      0.98773199       1650.2294
      0.98806101       1672.1675
      0.98839098       1607.2861
      0.98872000       1652.6024
      0.98904902       1609.9650
      0.98937899       1599.2277
      0.98970801       1678.4196
      0.99003798       1620.4976
      0.99036801       1610.6981
      0.99069899       1617.9026
      0.99102902       1653.5013
      0.99135900       1644.1259
      0.99168998       1605.3670
      0.99202001       1673.5437
      0.99235100       1633.1161
      0.99268198       1631.3172
      0.99301302       1648.2915
      0.99334401       1622.7218
      0.99367499       1651.9643
      0.99400598       1665.4336
      0.99433702       1622.7540
      0.99466902       1630.1341
      0.99500000       1657.3209
      0.99533200       1634.1362
      0.99566400       1645.6509
      0.99599499       1664.7407
      0.99632698       1667.7706
      0.99665999       1660.7427
      0.99699199       1668.9111
      0.99732399       1642.0404
      0.99765700       1634.5450
      0.99798900       1667.2983
      0.99832201       1663.6509
      0.99865502       1675.7016
      0.99898797       1644.4200
      0.99932098       1677.6734
      0.99965400       1646.6147
      0.99996001       1668.0049
       1.0003200       1663.6724
       1.0006500       1668.7602
       1.0009900       1627.3354
       1.0013200       1653.0904
       1.0016500       1704.4705
       1.0019900       1693.8729
       1.0023201       1674.9569
       1.0026600       1703.5348
       1.0029900       1652.4816
       1.0033300       1675.1852
       1.0036600       1668.1414
       1.0039901       1651.5693
       1.0043300       1692.1932
       1.0046600       1695.1010
       1.0050000       1633.0269
       1.0053300       1612.8177
       1.0056700       1664.3380
       1.0060000       1641.2988
       1.0063400       1657.0357
       1.0066800       1626.4981
       1.0070100       1686.1181
       1.0073500       1713.3383
       1.0076801       1705.2396
       1.0080200       1653.9540
       1.0083500       1687.3744
       1.0086900       1663.3589
       1.0090300       1681.0050
       1.0093600       1690.6907
       1.0096999       1691.3682
       1.0100400       1702.3826
       1.0103700       1681.0905
       1.0107100       1615.6711
       1.0110500       1719.1548
       1.0113800       1691.4020
       1.0117199       1683.9716
       1.0120600       1695.1774
       1.0123900       1707.9192
       1.0127300       1698.0275
       1.0130700       1714.3656
       1.0134100       1720.4083
       1.0137500       1703.4884
       1.0140800       1716.6337
       1.0144200       1693.4204
       1.0147600       1648.3962
       1.0151000       1683.3918
       1.0154400       1701.1596
       1.0157700       1650.1793
       1.0161099       1728.7441
       1.0164500       1708.1813
       1.0167900       1686.9589
       1.0171300       1690.0333
       1.0174700       1695.2245
       1.0178100       1728.0903
       1.0181500       1707.4195
       1.0184900       1692.3017
       1.0188299       1675.8523
       1.0191700       1721.2987
       1.0195100       1665.3863
       1.0198500       1690.0475
       1.0201800       1704.1863
       1.0205200       1697.9142
       1.0208600       1727.6233
       1.0211999       1709.5099
       1.0215501       1684.6106
       1.0218900       1664.4446
       1.0222300       1683.8215
       1.0225700       1708.5434
       1.0229100       1721.7291
       1.0232500       1733.6514
       1.0235900       1711.3186
       1.0239300       1731.4336
       1.0242701       1719.6869
       1.0246100       1746.2338
       1.0249600       1727.0786
       1.0253000       1740.9428
       1.0256400       1737.4085
       1.0259800       1740.6489
       1.0263200       1725.8832
       1.0266700       1709.6314
       1.0270100       1748.8268
       1.0273499       1722.2236
       1.0276901       1743.3299
       1.0280401       1752.2221
       1.0283800       1749.6459
       1.0287200       1737.0503
       1.0290600       1661.2363
       1.0294100       1753.8725
       1.0297500       1754.9974
       1.0300900       1727.8331
       1.0304400       1727.3663
       1.0307800       1755.1666
       1.0311199       1745.3236
       1.0314699       1741.6503
       1.0318100       1752.3034
       1.0321600       1757.1623
       1.0325000       1747.6906
       1.0328400       1720.2241
       1.0331900       1663.0619
       1.0335300       1732.9866
       1.0338800       1735.1272
       1.0342200       1704.4672
       1.0345600       1677.1107
       1.0349100       1734.7856
       1.0352499       1756.7208
       1.0355999       1732.3061
       1.0359499       1751.7335
       1.0362900       1776.3153
       1.0366400       1747.6236
       1.0369800       1769.6490
       1.0373300       1676.7814
       1.0376700       1730.7454
       1.0380200       1699.2625
       1.0383700       1774.2363
       1.0387100       1781.0228
       1.0390600       1769.5994
       1.0394000       1753.8732
       1.0397500       1704.2790
       1.0401000       1687.5159
       1.0404400       1775.6941
       1.0407900       1757.5980
       1.0411400       1760.8586
       1.0414799       1776.3394
       1.0418299       1747.8531
       1.0421799       1789.6517
       1.0425299       1700.7133
       1.0428700       1748.1412
       1.0432200       1780.3481
       1.0435700       1769.2676
       1.0439200       1761.1045
       1.0442700       1780.5993
       1.0446100       1789.6729
       1.0449600       1777.8320
       1.0453100       1787.4866
       1.0456600       1772.7634
       1.0460100       1760.9532
       1.0463600       1740.3626
       1.0467000       1795.9518
       1.0470500       1741.4307
       1.0474000       1717.7365
       1.0477500       1787.0305
       1.0481000       1776.8126
       1.0484500       1765.2922
       1.0488000       1754.9456
       1.0491500       1800.4049
       1.0495000       1800.4256
       1.0498500       1733.3798
       1.0502000       1802.0897
       1.0505500       1766.4819
       1.0509000       1784.9277
       1.0512500       1763.3652
       1.0516000       1789.2989
       1.0519500       1785.7376
       1.0523000       1797.9813
       1.0526500       1801.4110
       1.0530000       1802.9293
       1.0533500       1721.6216
       1.0537000       1800.1270
       1.0540500       1803.8907
       1.0544100       1788.5025
       1.0547600       1818.3843
       1.0551100       1804.9349
       1.0554600       1771.4151
       1.0558100       1806.9858
       1.0561600       1799.7024
       1.0565200       1814.6727
       1.0568700       1798.9680
       1.0572200       1785.3845
       1.0575700       1775.1112
       1.0579300       1765.2765
       1.0582800       1801.7622
       1.0586300       1658.3005
       1.0589800       1710.0932
       1.0593400       1789.2566
       1.0596900       1801.2211
       1.0600400       1819.4770
       1.0604000       1808.3277
       1.0607500       1681.0412
       1.0611000       1796.1574
       1.0614600       1814.4372
       1.0618100       1794.3399
       1.0621700       1803.2522
       1.0625200       1821.3904
       1.0628700       1780.8023
       1.0632300       1775.8984
       1.0635800       1818.3693
       1.0639400       1819.1423
       1.0642900       1832.2288
       1.0646501       1825.2930
       1.0650001       1804.4327
       1.0653600       1829.2214
       1.0657099       1819.5228
       1.0660700       1833.6460
       1.0664200       1671.1357
       1.0667800       1826.4858
       1.0671300       1802.1760
       1.0674900       1793.8568
       1.0678400       1801.3288
       1.0682000       1831.9505
       1.0685600       1785.7571
       1.0689100       1799.4295
       1.0692700       1719.1766
       1.0696300       1761.4404
       1.0699800       1842.1212
       1.0703400       1783.7441
       1.0707000       1778.9150
       1.0710500       1796.4135
       1.0714099       1840.2154
       1.0717700       1819.4431
       1.0721200       1787.2918
       1.0724800       1844.8476
       1.0728400       1747.0946
       1.0732000       1750.5712
       1.0735500       1764.1748
       1.0739100       1848.2969
       1.0742700       1835.9372
       1.0746300       1804.5806
       1.0749900       1829.2379
       1.0753500       1745.4924
       1.0757000       1777.2390
       1.0760601       1846.5871
       1.0764199       1848.2213
       1.0767800       1841.8037
       1.0771400       1824.4029
       1.0775000       1849.1624
       1.0778600       1818.8581
       1.0782200       1836.3652
       1.0785800       1755.5176
       1.0789400       1740.5645
       1.0793000       1850.8496
       1.0796601       1820.3514
       1.0800101       1826.2525
       1.0803699       1831.8038
       1.0807300       1833.6004
       1.0810900       1821.0552
       1.0814500       1694.1093
       1.0818200       1848.8356
       1.0821800       1806.0225
       1.0825400       1839.7844
       1.0829000       1708.1136
       1.0832601       1828.5954
       1.0836200       1803.7621
       1.0839800       1858.3781
       1.0843400       1839.5711
       1.0847000       1769.8608
       1.0850700       1844.5484
       1.0854300       1859.9973
       1.0857900       1859.2800
       1.0861501       1861.4508
       1.0865099       1813.5862
       1.0868700       1869.2139
       1.0872400       1656.7877
       1.0876000       1787.1808
       1.0879600       1843.5639
       1.0883300       1816.5969
       1.0886900       1732.2508
       1.0890501       1846.7963
       1.0894099       1827.3997
       1.0897800       1784.3071
       1.0901400       1865.2912
       1.0905000       1866.2813
       1.0908700       1842.2027
       1.0912300       1862.1129
       1.0915999       1858.5555
       1.0919600       1799.9283
       1.0923200       1848.7545
       1.0926900       1838.7670
       1.0930500       1709.5945
       1.0934200       1776.7926
       1.0937800       1811.1001
       1.0941401       1730.6545
       1.0945100       1791.0285
       1.0948700       1826.4550
       1.0952400       1798.5551
       1.0956000       1746.2472
       1.0959700       1775.1072
       1.0963300       1833.2910
       1.0967000       1610.5028
       1.0970600       1675.6647
       1.0974300       1789.9276
       1.0978000       1770.9285
       1.0981600       1654.5138
       1.0985301       1767.5797
       1.0988899       1721.1411
       1.0992600       1786.7731
       1.0996300       1801.8914
       1.0999900       1679.3282
       1.1003600       1791.0856
       1.1007299       1734.8617
       1.1010900       1796.8756
       1.1014600       1746.8633
       1.1018300       1742.6398
       1.1022000       1720.5233
       1.1025600       1732.3058
       1.1029299       1838.9719
       1.1033000       1692.7655
       1.1036700       1804.7150
       1.1040300       1744.4380
       1.1044000       1838.2942
       1.1047699       1766.3673
       1.1051400       1786.2490
       1.1055100       1853.6773
       1.1058800       1779.1965
       1.1062400       1757.6820
       1.1066099       1818.5868
       1.1069800       1821.4106
       1.1073500       1804.7380
       1.1077200       1819.7134
       1.1080900       1781.9632
       1.1084599       1801.1939
       1.1088300       1871.8120
       1.1092000       1791.8820
       1.1095700       1782.9955
       1.1099401       1809.0817
       1.1103100       1851.2650
       1.1106800       1774.6760
       1.1110500       1832.5899
       1.1114200       1862.2507
       1.1117899       1852.3572
       1.1121600       1716.8081
       1.1125300       1857.6322
       1.1129000       1857.0123
       1.1132700       1823.1874
       1.1136400       1740.6720
       1.1140100       1912.5047
       1.1143900       1867.0966
       1.1147600       1721.3538
       1.1151299       1867.8024
       1.1155000       1872.6525
       1.1158700       1845.1234
       1.1162400       1772.3577
       1.1166199       1914.6056
       1.1169900       1877.0819
       1.1173600       1826.4880
       1.1177300       1811.9748
       1.1181099       1908.8039
       1.1184800       1874.7041
       1.1188500       1797.6039
       1.1192200       1752.2026
       1.1196001       1896.4886
       1.1199700       1800.8713
       1.1203400       1816.7091
       1.1207200       1841.9040
       1.1210901       1888.5034
       1.1214600       1849.6396
       1.1218400       1866.3219
       1.1222100       1899.2218
       1.1225899       1862.3839
       1.1229600       1849.5531
       1.1233300       1838.5907
       1.1237100       1905.8145
       1.1240799       1892.0130
       1.1244600       1903.1799
       1.1248300       1756.2558
       1.1252100       1939.7768
       1.1255800       1734.3754
       1.1259600       1807.0334
       1.1263300       1747.3595
       1.1267101       1938.2390
       1.1270800       1909.7715
       1.1274600       1915.4115
       1.1278400       1838.3391
       1.1282099       1834.7335
       1.1285900       1940.7505
       1.1289600       1899.2195
       1.1293401       1848.5461
       1.1297200       1851.0226
       1.1300900       1781.3412
       1.1304700       1944.9081
       1.1308500       1908.7211
       1.1312200       1852.7346
       1.1316000       1805.9724
       1.1319799       1925.3789
       1.1323600       1934.1138
       1.1327300       1924.6398
       1.1331100       1868.5994
       1.1334900       1800.0481
       1.1338700       1905.2794
       1.1342400       1888.6606
       1.1346200       1929.1145
       1.1350000       1895.0945
       1.1353800       1874.6660
       1.1357599       1817.4717
       1.1361400       1940.2816
       1.1365100       1928.8170
       1.1368901       1917.2681
       1.1372700       1926.2837
       1.1376500       1744.3718
       1.1380301       1943.1654
       1.1384100       1811.0831
       1.1387900       1951.8889
       1.1391701       1885.1223
       1.1395500       1772.5463
       1.1399300       1901.5516
       1.1403100       1920.5855
       1.1406900       1805.1374
       1.1410700       1907.8822
       1.1414500       1868.0812
       1.1418300       1924.1124
       1.1422100       1912.9970
       1.1425900       1842.1171
       1.1429700       1909.5127
       1.1433500       1965.4593
       1.1437300       1869.6360
       1.1441100       1828.5321
       1.1445000       1927.6014
       1.1448801       1913.0369
       1.1452600       1925.6283
       1.1456400       1975.8064
       1.1460201       1849.3084
       1.1464100       1950.6757
       1.1467900       1965.9620
       1.1471699       1954.5124
       1.1475500       1872.8106
       1.1479300       1966.0956
       1.1483200       1868.3525
       1.1487000       1919.3759
       1.1490800       1932.9481
       1.1494700       1960.5420
       1.1498500       1930.0356
       1.1502301       1979.2112
       1.1506100       1861.3770
       1.1510000       1988.2323
       1.1513799       1935.0182
       1.1517700       1963.2601
       1.1521500       1921.0418
       1.1525300       1941.1581
       1.1529200       1927.9694
       1.1533000       1929.2753
       1.1536900       1960.5892
       1.1540700       1989.2039
       1.1544600       1900.0771
       1.1548400       2000.2395
       1.1552300       1958.3051
       1.1556100       1931.7748
       1.1560000       1997.5091
       1.1563801       1957.6255
       1.1567700       1944.2676
       1.1571500       1993.5557
       1.1575400       1984.4211
       1.1579200       1911.9403
       1.1583101       1984.0087
       1.1587000       1953.9267
       1.1590800       1944.4817
       1.1594700       1899.2166
       1.1598600       1864.3106
       1.1602401       1957.3672
       1.1606300       1964.3321
       1.1610200       1830.4587
       1.1614000       1829.0119
       1.1617900       1930.6657
       1.1621799       1989.5520
       1.1625600       2000.9274
       1.1629500       1962.8275
       1.1633400       1941.5528
       1.1637300       1988.1866
       1.1641099       1875.3309
       1.1645000       1930.1652
       1.1648901       2008.2957
       1.1652800       1984.2591
       1.1656700       1962.6172
       1.1660600       1955.8955
       1.1664500       1975.2728
       1.1668299       1978.4985
       1.1672200       1919.4156
       1.1676100       2013.4944
       1.1680000       2005.6785
       1.1683900       1972.8775
       1.1687800       1971.2831
       1.1691700       1815.0711
       1.1695600       1950.8000
       1.1699500       1975.3806
       1.1703399       1975.6103
       1.1707300       2019.7667
       1.1711200       1978.3060
       1.1715100       1977.0348
       1.1719000       1991.9044
       1.1722900       2021.9687
       1.1726800       1952.7729
       1.1730700       2001.7906
       1.1734700       2018.4918
       1.1738600       1979.5206
       1.1742500       1972.2196
       1.1746401       2019.4884
       1.1750300       1989.3265
       1.1754200       1960.3597
       1.1758100       1944.0220
       1.1762100       2030.4590
       1.1766000       2011.9771
       1.1769900       1990.1910
       1.1773800       1959.4821
       1.1777800       1940.5002
       1.1781700       1979.3885
       1.1785600       1843.2097
       1.1789500       2020.6858
       1.1793500       2015.3856
       1.1797400       1999.8672
       1.1801300       1983.2559
       1.1805300       2023.0663
       1.1809200       2027.4835
       1.1813101       1941.8816
       1.1817100       2010.2004
       1.1821001       2021.8731
       1.1824900       2010.9484
       1.1828901       1938.5425
       1.1832800       1741.2724
       1.1836801       2041.3009
       1.1840700       1992.0434
       1.1844701       1971.8400
       1.1848600       2042.1897
       1.1852601       2004.5365
       1.1856500       2029.7463
       1.1860501       2011.3003
       1.1864400       2006.1461
       1.1868401       2037.3129
       1.1872300       2039.3180
       1.1876301       1962.1778
       1.1880200       2044.1230
       1.1884201       1885.4734
       1.1888200       1833.1362
       1.1892101       1970.4741
       1.1896100       1973.6404
       1.1900100       2016.8840
       1.1904000       2041.1967
       1.1908000       2024.5344
       1.1912000       2020.1455
       1.1915900       2041.3769
       1.1919900       2062.4249
       1.1923900       2019.7847
       1.1927900       2016.0292
       1.1931800       2054.4047
       1.1935800       2058.1717
       1.1939800       2022.1621
       1.1943800       2031.4147
       1.1947700       2035.6973
       1.1951700       1982.6193
       1.1955700       2033.5019
       1.1959701       1976.2293
       1.1963700       2058.7379
       1.1967700       2046.9756
       1.1971700       2017.8264
       1.1975600       1745.4587
       1.1979600       2027.9979
       1.1983600       2044.6841
       1.1987600       1886.9187
       1.1991600       2028.2469
       1.1995600       1897.0427
       1.1999600       2054.7289
       1.2003599       2056.1665
       1.2007600       1957.9279
       1.2011600       2046.4463
       1.2015600       2052.0158
       1.2019600       2053.2234
       1.2023600       2038.9618
       1.2027600       2056.5480
       1.2031699       2030.8150
       1.2035700       1859.8666
       1.2039700       2031.6765
       1.2043700       1997.1781
       1.2047700       2029.7101
       1.2051700       2062.9531
       1.2055700       2043.9589
       1.2059799       2043.2026
       1.2063800       2054.0708
       1.2067800       2037.7688
       1.2071800       2044.2443
       1.2075800       2032.5202
       1.2079901       2059.2343
       1.2083900       2000.8256
       1.2087899       1768.3664
       1.2092000       2069.1998
       1.2096000       2051.4809
       1.2100000       2034.7979
       1.2104000       2051.9667
       1.2108099       1966.9762
       1.2112100       2035.1454
       1.2116200       2061.1370
       1.2120200       2049.7059
       1.2124200       2053.4139
       1.2128299       2065.3887
       1.2132300       2064.5823
       1.2136400       2046.7481
       1.2140400       2094.2529
       1.2144500       2071.1910
       1.2148499       2057.7902
       1.2152600       2088.4560
       1.2156600       2053.7750
       1.2160701       2084.3826
       1.2164700       2089.1630
       1.2168800       2051.9448
       1.2172800       2095.1911
       1.2176900       2070.2031
       1.2180901       2088.5710
       1.2185000       2065.2816
       1.2189100       2096.0119
       1.2193100       2032.6178
       1.2197200       2065.4696
       1.2201300       2032.2092
       1.2205300       2105.7961
       1.2209400       2058.3195
       1.2213500       2072.7892
       1.2217500       2034.5580
       1.2221600       2097.1442
       1.2225699       2081.6641
       1.2229800       2057.3777
       1.2233800       2065.9003
       1.2237900       2105.5508
       1.2242000       2078.3959
       1.2246100       2076.1248
       1.2250201       2097.2075
       1.2254200       2065.8013
       1.2258300       2090.5433
       1.2262400       2085.9949
       1.2266500       2102.1803
       1.2270600       2103.3170
       1.2274700       1978.3505
       1.2278800       2102.3318
       1.2282900       2101.1453
       1.2287000       2095.8684
       1.2291000       2087.1453
       1.2295099       2113.0194
       1.2299200       2090.5250
       1.2303300       2096.2048
       1.2307400       2111.3237
       1.2311500       2110.6836
       1.2315600       2073.5801
       1.2319800       2111.0323
       1.2323900       2076.8866
       1.2328000       2107.6286
       1.2332100       2090.7282
       1.2336200       2094.3446
       1.2340300       2060.5195
       1.2344400       2030.9429
       1.2348500       2093.4808
       1.2352700       2118.4670
       1.2356800       2062.0549
       1.2360899       2040.6918
       1.2365000       2047.3405
       1.2369100       2070.9525
       1.2373199       2092.7590
       1.2377400       2134.9765
       1.2381500       2121.6755
       1.2385600       2105.4972
       1.2389801       2124.5270
       1.2393900       2081.6261
       1.2398000       2052.3774
       1.2402101       2081.6053
       1.2406300       2097.5690
       1.2410400       2099.0366
       1.2414600       2139.6918
       1.2418700       2090.9320
       1.2422800       2089.6133
       1.2427000       2049.2345
       1.2431099       2108.6967
       1.2435300       2008.0023
       1.2439400       2119.1577
       1.2443500       2144.1737
       1.2447701       2125.2485
       1.2451900       2126.1807
       1.2456000       2135.6389
       1.2460099       2114.3850
       1.2464300       2134.9411
       1.2468500       2131.0435
       1.2472600       2096.1261
       1.2476799       2132.0062
       1.2480900       2137.3268
       1.2485100       2136.5541
       1.2489200       2140.7690
       1.2493401       2147.4792
       1.2497600       2116.1413
       1.2501700       2128.5780
       1.2505900       2128.5229
       1.2510099       2155.1784
       1.2514300       2064.2630
       1.2518400       2069.4606
       1.2522600       2081.4869
       1.2526799       2023.8394
       1.2530900       2100.6413
       1.2535100       2088.7148
       1.2539300       2134.8982
       1.2543499       2141.5662
       1.2547700       2140.2847
       1.2551800       2156.3152
       1.2556000       2149.1225
       1.2560199       2098.5123
       1.2564400       2124.0385
       1.2568600       2115.2453
       1.2572800       2128.3716
       1.2577000       2140.4790
       1.2581199       2147.6381
       1.2585400       2093.5825
       1.2589600       2172.5541
       1.2593700       2125.2940
       1.2597899       2165.5807
       1.2602201       2130.4140
       1.2606400       2162.1491
       1.2610500       2136.2461
       1.2614700       2123.2930
       1.2618901       2105.4226
       1.2623200       2156.6252
       1.2627400       2170.6267
       1.2631600       2149.7497
       1.2635800       2163.5009
       1.2640001       2109.2903
       1.2644200       2128.0998
       1.2648400       2159.2567
       1.2652600       2105.5111
       1.2656900       2174.8236
       1.2661099       2163.1826
       1.2665300       2180.1056
       1.2669500       2129.3823
       1.2673700       2142.0566
       1.2678000       2187.0277
       1.2682199       2085.2040
       1.2686400       2148.3338
       1.2690700       2174.1863
       1.2694900       2173.2630
       1.2699100       2144.0393
       1.2703300       2177.7737
       1.2707601       2158.3382
       1.2711800       2147.7308
       1.2716100       2162.3692
       1.2720300       2188.3479
       1.2724500       2195.4391
       1.2728800       2177.1580
       1.2733001       2182.6507
       1.2737300       2162.9413
       1.2741500       2145.1264
       1.2745800       2137.7341
       1.2750000       2180.7065
       1.2754300       2185.8533
       1.2758501       2198.5978
       1.2762800       2193.6392
       1.2767000       2193.1875
       1.2771300       2186.1118
       1.2775500       2184.5440
       1.2779800       2195.0587
       1.2783999       2182.3440
       1.2788301       2206.7922
       1.2792600       2172.5996
       1.2796800       2182.0522
       1.2801100       2186.3131
       1.2805400       2189.3867
       1.2809600       2118.7799
       1.2813900       2128.2188
       1.2818201       2104.6581
       1.2822500       2022.0221
       1.2826700       2026.0174
       1.2831000       2137.9793
       1.2835300       2139.4763
       1.2839500       2206.3577
       1.2843800       2151.2073
       1.2848099       2210.9419
       1.2852401       2147.8854
       1.2856700       2209.2097
       1.2861000       2213.0207
       1.2865300       2201.0123
       1.2869500       2221.9041
       1.2873800       2188.1345
       1.2878100       2199.9591
       1.2882400       2135.4017
       1.2886699       2200.5672
       1.2891001       2221.7392
       1.2895300       2214.6917
       1.2899600       2188.5035
       1.2903900       2072.9721
       1.2908200       2213.0964
       1.2912500       2142.1094
       1.2916800       2214.7915
       1.2921100       2214.4409
       1.2925400       2160.7640
       1.2929699       2207.9405
       1.2934000       2196.1846
       1.2938401       2135.4921
       1.2942700       2200.5000
       1.2947000       2220.5792
       1.2951300       2204.8298
       1.2955600       2207.4785
       1.2959900       2201.7522
       1.2964200       2224.0842
       1.2968600       2203.2106
       1.2972900       2189.3551
       1.2977200       2218.2493
       1.2981499       2147.7619
       1.2985899       2236.6205
       1.2990201       2209.9905
       1.2994500       2209.1225
       1.2998900       2240.9607
       1.3003200       2221.4358
       1.3007500       2214.6094
       1.3011900       2213.4951
       1.3016200       2211.8311
       1.3020500       2228.7675
       1.3024900       2232.2237
       1.3029200       2232.9472
       1.3033600       2194.1043
       1.3037900       2196.0082
       1.3042300       2195.0485
       1.3046600       2220.2525
       1.3050900       2228.4226
       1.3055300       2222.0691
       1.3059601       2249.6886
       1.3063999       2233.8589
       1.3068399       2205.0079
       1.3072701       2240.2077
       1.3077101       2238.3555
       1.3081400       2217.9747
       1.3085800       2255.1125
       1.3090200       2222.3813
       1.3094500       2263.6019
       1.3098900       2227.1171
       1.3103300       2205.1123
       1.3107600       2238.6177
       1.3112000       2251.4774
       1.3116400       2251.6499
       1.3120700       2217.6521
       1.3125100       2043.6641
       1.3129500       2224.5614
       1.3133900       2238.9317
       1.3138200       2197.8132
       1.3142600       2267.9345
       1.3147000       2243.0206
       1.3151400       2202.4558
       1.3155800       2047.2676
       1.3160200       2232.7808
       1.3164500       2265.0082
       1.3168900       2258.0161
       1.3173300       2262.6725
       1.3177700       2279.4475
       1.3182100       2198.1416
       1.3186500       2235.8602
       1.3190900       2276.1744
       1.3195300       2257.0425
       1.3199700       2252.5442
       1.3204100       2206.2073
       1.3208500       2276.6036
       1.3212900       2249.7977
       1.3217300       2216.8955
       1.3221700       2250.5970
       1.3226100       2249.6939
       1.3230500       2286.0610
       1.3234900       2275.3940
       1.3239300       2279.7092
       1.3243700       2288.4896
       1.3248200       2282.0350
       1.3252600       2249.4744
       1.3257000       2289.0350
       1.3261400       2272.4829
       1.3265800       2250.1425
       1.3270299       2250.0910
       1.3274699       2273.6573
       1.3279099       2282.8467
       1.3283499       2216.6232
       1.3288000       2279.5541
       1.3292400       2132.0992
       1.3296800       2183.9746
       1.3301200       2289.9515
       1.3305700       2254.7988
       1.3310100       2251.0805
       1.3314500       2279.5935
       1.3319000       2286.9830
       1.3323400       2108.8046
       1.3327900       2274.7754
       1.3332300       2274.6246
       1.3336800       2287.5744
       1.3341200       2305.9381
       1.3345701       2272.2823
       1.3350101       2282.2278
       1.3354501       2243.9305
       1.3358999       2299.2422
       1.3363500       2298.5400
       1.3367900       2311.9465
       1.3372400       2293.9502
       1.3376800       2294.1225
       1.3381300       2300.5414
       1.3385700       2283.4239
       1.3390200       2264.0695
       1.3394700       2184.2444
       1.3399100       2244.3758
       1.3403600       2310.1393
       1.3408099       2291.5172
       1.3412499       2290.1948
       1.3417000       2306.0624
       1.3421500       2246.2821
       1.3425900       2314.0359
       1.3430400       2296.0519
       1.3434900       2296.3503
       1.3439400       2326.0789
       1.3443900       2315.7259
       1.3448400       2319.6142
       1.3452801       2300.0865
       1.3457299       2296.8179
       1.3461800       2284.4291
       1.3466300       2315.8035
       1.3470800       2320.4612
       1.3475300       2326.6945
       1.3479800       2300.0395
       1.3484300       2324.9732
       1.3488700       2318.2160
       1.3493201       2320.1512
       1.3497699       2267.2959
       1.3502200       2265.4091
       1.3506700       2312.2292
       1.3511200       2338.2729
       1.3515700       2333.9236
       1.3520300       2328.9706
       1.3524801       2313.4685
       1.3529299       2321.5583
       1.3533800       2343.2686
       1.3538300       2337.7783
       1.3542800       2337.3193
       1.3547300       2336.5569
       1.3551800       2273.6831
       1.3556401       2283.6096
       1.3560899       2314.5169
       1.3565400       2326.7910
       1.3569900       2252.6263
       1.3574400       2326.4972
       1.3579000       2328.9915
       1.3583500       2339.0646
       1.3588001       2348.1168
       1.3592499       2280.6037
       1.3597100       2330.1783
       1.3601600       2344.6492
       1.3606100       2198.5895
       1.3610700       2347.9299
       1.3615201       2353.3465
       1.3619699       2352.1807
       1.3624300       2344.4286
       1.3628800       2242.6275
       1.3633400       2331.7526
       1.3637900       2352.2228
       1.3642499       2352.9294
       1.3647000       2268.2874
       1.3651600       2341.8166
       1.3656100       2331.6720
       1.3660700       2345.2883
       1.3665200       2363.3948
       1.3669800       2266.6293
       1.3674300       2361.9864
       1.3678900       2363.4910
       1.3683500       2343.1976
       1.3688000       2255.7769
       1.3692600       2348.9123
       1.3697100       2343.4770
       1.3701700       2312.4187
       1.3706300       2346.9571
       1.3710800       2342.9273
       1.3715400       2333.1286
       1.3720000       2374.9312
       1.3724600       2310.1199
       1.3729100       2326.5609
       1.3733701       2322.1881
       1.3738300       2297.7344
       1.3742900       2371.0594
       1.3747400       2331.3532
       1.3752000       2374.3606
       1.3756599       2349.8240
       1.3761200       2287.5822
       1.3765800       2362.3080
       1.3770400       2362.0559
       1.3775001       2373.4474
       1.3779500       2326.5351
       1.3784100       2386.0981
       1.3788700       2380.9804
       1.3793300       2350.4214
       1.3797899       2385.6540
       1.3802500       2367.8577
       1.3807100       2391.7671
       1.3811700       2380.5805
       1.3816299       2381.9335
       1.3820900       2336.4030
       1.3825600       2381.5788
       1.3830200       2336.1254
       1.3834800       2374.9878
       1.3839400       2390.1685
       1.3844000       2398.7678
       1.3848600       2387.9753
       1.3853199       2251.5946
       1.3857800       2393.2669
       1.3862500       2389.0600
       1.3867100       2271.0129
       1.3871700       2385.4817
       1.3876300       2383.6078
       1.3881000       2371.9292
       1.3885601       2406.7401
       1.3890200       2385.1374
       1.3894800       2404.8357
       1.3899500       2282.2227
       1.3904099       2405.3055
       1.3908700       2375.8366
       1.3913400       2371.3711
       1.3918000       2389.5807
       1.3922600       2383.8819
       1.3927300       2389.5585
       1.3931900       2398.0527
       1.3936599       2398.4020
       1.3941200       2389.2786
       1.3945900       2388.7246
       1.3950500       2389.1247
       1.3955200       2339.4076
       1.3959800       2415.1884
       1.3964500       2384.5559
       1.3969100       2379.6499
       1.3973800       2401.1285
       1.3978400       2393.0415
       1.3983099       2370.1573
       1.3987800       2389.1025
       1.3992400       2393.4545
       1.3997101       2343.4520
       1.4001800       2307.5551
       1.4006400       2354.4686
       1.4011101       2335.4565
       1.4015800       2414.3120
       1.4020400       2424.9674
       1.4025100       2412.1870
       1.4029800       2360.1391
       1.4034500       2407.5611
       1.4039100       2426.3605
       1.4043800       2344.4630
       1.4048500       2428.3272
       1.4053200       2427.6380
       1.4057900       2428.7783
       1.4062600       2379.8171
       1.4067200       2305.6486
       1.4071900       2326.4616
       1.4076600       2353.6388
       1.4081300       2403.5001
       1.4086000       2332.9397
       1.4090700       2399.1384
       1.4095401       2384.0108
       1.4100100       2371.5535
       1.4104800       2396.2103
       1.4109499       2388.0844
       1.4114200       2362.8196
       1.4118900       2337.9751
       1.4123600       2313.5805
       1.4128300       2271.9107
       1.4133000       2191.4682
       1.4137700       2398.2838
       1.4142500       2309.1870
       1.4147201       2408.5774
       1.4151900       2322.6461
       1.4156600       2430.5431
       1.4161299       2260.2340
       1.4166000       2389.3468
       1.4170800       2362.2292
       1.4175500       2410.4791
       1.4180200       2398.6963
       1.4184901       2267.5415
       1.4189700       2375.9826
       1.4194400       2292.0543
       1.4199100       2394.2409
       1.4203900       2282.8298
       1.4208601       2304.4004
       1.4213300       2411.5085
       1.4218100       2377.1161
       1.4222800       2354.6838
       1.4227600       2294.4812
       1.4232301       2355.9080
       1.4237000       2388.5909
       1.4241800       2167.5991
       1.4246500       2442.1041
       1.4251300       2333.7642
       1.4256001       2286.5202
       1.4260800       2335.5350
       1.4265500       2314.7124
       1.4270300       2433.3939
       1.4275100       2187.4334
       1.4279799       2445.2297
       1.4284600       2391.3695
       1.4289300       2303.8032
       1.4294100       2265.4965
       1.4298900       2356.8965
       1.4303600       2319.2481
       1.4308400       2454.9511
       1.4313200       2236.9270
       1.4317900       2388.9148
       1.4322701       2392.8826
       1.4327500       2391.6655
       1.4332300       2435.8175
       1.4337000       2410.7863
       1.4341800       2389.1904
       1.4346600       2398.4495
       1.4351400       2443.8906
       1.4356200       2314.4598
       1.4360900       2454.6338
       1.4365700       2429.0474
       1.4370500       2497.3446
       1.4375300       2332.4135
       1.4380100       2393.4811
       1.4384900       2480.0722
       1.4389700       2448.2434
       1.4394500       2423.1728
       1.4399300       2379.6509
       1.4404100       2198.8408
       1.4408900       2385.8144
       1.4413700       2505.6491
       1.4418499       2348.5693
       1.4423300       2398.0918
       1.4428101       2424.1663
       1.4432900       2392.7258
       1.4437701       2395.5816
       1.4442500       2318.8657
       1.4447401       2342.8298
       1.4452200       2501.8571
       1.4457000       2507.5278
       1.4461800       2337.8738
       1.4466600       2320.6560
       1.4471400       2444.4888
       1.4476300       2518.6371
       1.4481100       2411.1649
       1.4485900       2394.4107
       1.4490700       2388.8329
       1.4495600       2441.4084
       1.4500400       2443.3217
       1.4505301       2335.2428
       1.4510100       2429.5390
       1.4514900       2297.9597
       1.4519700       2514.7688
       1.4524601       2503.5395
       1.4529400       2341.2949
       1.4534301       2365.2662
       1.4539100       2426.2843
       1.4543999       2402.2044
       1.4548800       2314.1034
       1.4553699       2399.5648
       1.4558500       2329.8661
       1.4563400       2444.3051
       1.4568200       2379.2136
       1.4573100       2436.4824
       1.4577900       2407.7637
       1.4582800       2445.6331
       1.4587700       2478.9392
       1.4592500       2437.9170
       1.4597400       2365.5041
       1.4602300       2389.1586
       1.4607100       2305.0112
       1.4612000       2428.8097
       1.4616899       2467.3083
       1.4621700       2390.8708
       1.4626600       2465.5112
       1.4631500       2378.7478
       1.4636400       2435.6881
       1.4641200       2453.1426
       1.4646100       2453.8156
       1.4651000       2394.7073
       1.4655900       2223.8768
       1.4660800       2323.1571
       1.4665700       2507.8799
       1.4670500       2431.6081
       1.4675400       2485.7861
       1.4680300       2433.2916
       1.4685200       2340.2875
       1.4690100       2515.2273
       1.4694999       2412.3411
       1.4699900       2461.0020
       1.4704800       2352.5788
       1.4709700       2466.4805
       1.4714600       2369.3219
       1.4719501       2405.8186
       1.4724400       2370.9821
       1.4729300       2497.7048
       1.4734200       2468.1149
       1.4739100       2465.6567
       1.4744101       2359.3128
       1.4749000       2450.7468
       1.4753900       2373.1278
       1.4758800       2404.0919
       1.4763700       2551.2402
       1.4768699       2452.3012
       1.4773600       2366.1905
       1.4778500       2480.7116
       1.4783400       2418.8015
       1.4788400       2474.3977
       1.4793299       2507.4876
       1.4798200       2489.6800
       1.4803200       2492.8660
       1.4808100       2413.3256
       1.4813000       2408.0856
       1.4818000       2467.3164
       1.4822900       2539.7161
       1.4827800       2496.7305
       1.4832799       2415.8929
       1.4837700       2430.9513
       1.4842700       2450.8870
       1.4847600       2493.7686
       1.4852600       2439.1669
       1.4857500       2549.8584
       1.4862500       2487.1162
       1.4867400       2407.3590
       1.4872400       2436.5693
       1.4877400       2396.2940
       1.4882300       1919.5751
       1.4887300       2475.0270
       1.4892200       2528.5712
       1.4897200       2557.3866
       1.4902101       2435.0465
       1.4907100       2388.1711
       1.4912100       2464.5030
       1.4917099       2417.3475
       1.4922000       2565.9412
       1.4927000       2582.8927
       1.4931999       2503.9548
       1.4937000       2518.4347
       1.4941900       2467.0754
       1.4946899       2597.1051
       1.4951900       2434.8158
       1.4956900       2575.9508
       1.4961900       2303.6822
       1.4966900       2589.5223
       1.4971800       2494.8599
       1.4976799       2506.4607
       1.4981800       2524.3517
       1.4986800       2420.0416
       1.4991800       2519.3254
       1.4996800       2616.2183
       1.5001700       2533.2254
       1.5006800       2517.6046
       1.5011801       2541.5066
       1.5016800       2486.6483
       1.5021800       2451.1199
       1.5026799       2135.6176
       1.5031900       2366.8511
       1.5036900       2531.4235
       1.5041900       2349.1680
       1.5046901       2386.0304
       1.5051900       2253.4915
       1.5056900       2394.9617
       1.5061899       2554.3297
       1.5067000       2502.2441
       1.5072000       2571.2175
       1.5077000       2596.1863
       1.5082000       2408.5350
       1.5087100       2626.5030
       1.5092100       2587.1879
       1.5097100       2487.2309
       1.5102201       2427.0815
       1.5107200       2581.2229
       1.5112200       2559.7740
       1.5117300       2608.8565
       1.5122300       2448.7044
       1.5127300       2470.0984
       1.5132400       2570.9394
       1.5137399       2510.3275
       1.5142500       2493.0357
       1.5147500       2519.4485
       1.5152600       2612.1613
       1.5157599       2559.8195
       1.5162700       2470.5471
       1.5167700       2506.2857
       1.5172800       2545.3032
       1.5177799       2632.2339
       1.5182900       2507.0731
       1.5188000       2514.4704
       1.5193000       2556.3324
       1.5198100       2559.1693
       1.5203201       2500.8668
       1.5208200       2619.6182
       1.5213300       2460.8029
       1.5218400       2609.2971
       1.5223401       2371.4921
       1.5228500       2586.7678
       1.5233600       2489.3288
       1.5238600       2645.0857
       1.5243700       2554.1271
       1.5248801       2522.0853
       1.5253900       2570.1101
       1.5259000       2607.6804
       1.5264100       2548.3568
       1.5269200       2490.1008
       1.5274200       2638.4131
       1.5279300       2649.7881
       1.5284400       2567.3146
       1.5289500       2549.2531
       1.5294600       2614.5515
       1.5299700       2293.3563
       1.5304800       2629.9247
       1.5309900       2587.2473
       1.5315000       2656.3708
       1.5320100       2513.1374
       1.5325201       2642.0212
       1.5330300       2606.3860
       1.5335500       2649.1465
       1.5340600       2479.9583
       1.5345700       2538.0703
       1.5350800       2614.9251
       1.5355901       2588.7183
       1.5361000       2635.5047
       1.5366200       2593.5271
       1.5371300       2695.5235
       1.5376400       2635.6995
       1.5381500       2499.4595
       1.5386600       2617.2017
       1.5391800       2563.6489
       1.5396900       2554.2789
       1.5402000       2488.5088
       1.5407200       2635.7632
       1.5412300       2627.0502
       1.5417399       2668.2960
       1.5422601       2613.6550
       1.5427700       2545.7435
       1.5432900       2630.8968
       1.5438000       2587.1414
       1.5443200       2668.5464
       1.5448300       2648.3892
       1.5453500       2661.4393
       1.5458601       2673.0440
       1.5463800       2619.4753
       1.5468900       2632.9821
       1.5474100       2653.8196
       1.5479200       2616.4562
       1.5484400       2606.6689
       1.5489600       2660.1148
       1.5494699       2612.4546
       1.5499901       2567.0254
       1.5505100       2582.6285
       1.5510200       2663.0232
       1.5515400       2602.5113
       1.5520600       2683.0417
       1.5525700       2665.2227
       1.5530900       2674.6880
       1.5536100       2521.3570
       1.5541300       2582.7106
       1.5546401       2515.5195
       1.5551600       2697.6498
       1.5556800       2579.0618
       1.5562000       2450.0779
       1.5567200       2621.7397
       1.5572400       2642.4974
       1.5577600       2586.9899
       1.5582700       2628.3966
       1.5587900       2633.0907
       1.5593100       2580.0290
       1.5598300       2524.2414
       1.5603499       2700.5690
       1.5608701       2651.4337
       1.5614001       2659.1948
       1.5619200       2663.7671
       1.5624400       2523.7722
       1.5629600       2717.4884
       1.5634800       2499.5896
       1.5640000       2696.8563
       1.5645200       2664.8079
       1.5650400       2609.1817
       1.5655600       2646.9591
       1.5660900       2674.7365
       1.5666100       2571.5707
       1.5671300       2686.1459
       1.5676500       2553.0716
       1.5681700       2588.7807
       1.5687000       2621.8496
       1.5692199       2610.7092
       1.5697401       2494.7757
       1.5702699       2596.7585
       1.5707901       2664.8769
       1.5713100       2658.3571
       1.5718400       2620.2894
       1.5723600       2712.8666
       1.5728900       2551.4948
       1.5734100       2681.8120
       1.5739400       2721.2847
       1.5744600       2460.7777
       1.5749800       2647.5621
       1.5755100       2431.9085
       1.5760400       2709.2067
       1.5765600       2704.6230
       1.5770900       2189.9050
       1.5776100       2454.9438
       1.5781400       2619.1062
       1.5786600       2702.1594
       1.5791900       2571.0266
       1.5797100       2741.9442
       1.5802400       2617.8242
       1.5807700       2711.6275
       1.5813000       2685.2274
       1.5818200       2724.3608
       1.5823500       2465.7196
       1.5828800       2590.7470
       1.5834000       2732.4549
       1.5839300       2475.7184
       1.5844600       2726.4409
       1.5849900       2699.2741
       1.5855200       2677.9109
       1.5860400       2690.0781
       1.5865700       2583.0917
       1.5871000       2586.7145
       1.5876300       2666.1319
       1.5881600       2514.5515
       1.5886900       2514.1514
       1.5892200       2274.5336
       1.5897501       2426.3772
       1.5902801       2543.1951
       1.5908099       2451.6805
       1.5913399       2570.3854
       1.5918700       2647.9380
       1.5924000       2615.3988
       1.5929300       2770.3175
       1.5934600       2617.7115
       1.5939900       2749.1286
       1.5945300       2617.9611
       1.5950600       2773.4868
       1.5955900       2730.1127
       1.5961200       2570.6946
       1.5966500       2514.9539
       1.5971900       2650.7703
       1.5977200       2758.5653
       1.5982500       2587.3114
       1.5987800       2630.8953
       1.5993201       2690.1733
       1.5998501       2729.1944
       1.6003799       2735.3832
       1.6009200       2512.4023
       1.6014500       2627.2096
       1.6019800       2691.4718
       1.6025200       2681.0665
       1.6030500       2746.4407
       1.6035900       2766.0902
       1.6041200       2658.1598
       1.6046500       2543.4745
       1.6051900       2730.9837
       1.6057200       2728.7364
       1.6062599       2588.7013
       1.6068000       2718.9675
       1.6073300       2669.1264
       1.6078700       2659.3709
       1.6084000       2712.2037
       1.6089400       2737.2230
       1.6094700       2710.6847
       1.6100100       2542.6613
       1.6105500       2536.5741
       1.6110801       2651.6181
       1.6116199       2627.6282
       1.6121600       2647.0455
       1.6127000       2685.9514
       1.6132300       2678.2542
       1.6137700       2743.7817
       1.6143100       2639.1949
       1.6148500       2785.5376
       1.6153899       2640.4517
       1.6159199       2457.2390
       1.6164600       2764.1526
       1.6170000       2590.2274
       1.6175400       2782.2415
       1.6180800       2699.7904
       1.6186200       2666.2253
       1.6191601       2518.2874
       1.6197000       2624.9040
       1.6202400       2526.4795
       1.6207800       2585.1890
       1.6213200       2612.9795
       1.6218600       2612.3694
       1.6224000       2755.9694
       1.6229399       2621.9393
       1.6234800       2670.8515
       1.6240200       2667.6400
       1.6245600       2628.0356
       1.6251100       2725.4509
       1.6256500       2736.4245
       1.6261899       2712.2578
       1.6267300       2761.2203
       1.6272700       2754.2991
       1.6278200       2767.1704
       1.6283600       2773.3663
       1.6289001       2741.2416
       1.6294399       2760.9768
       1.6299900       2701.5428
       1.6305300       2749.6414
       1.6310700       2782.7497
       1.6316200       2687.2695
       1.6321599       2675.9877
       1.6327100       2703.3652
       1.6332500       2804.5057
       1.6338000       2610.1765
       1.6343400       2791.1025
       1.6348799       2758.7608
       1.6354300       2764.2019
       1.6359700       2731.3447
       1.6365200       2797.2476
       1.6370699       2472.5281
       1.6376100       2753.2606
       1.6381600       2739.1002
       1.6387000       2386.5975
       1.6392500       2689.6481
       1.6398000       2581.2914
       1.6403400       2459.2852
       1.6408900       2479.1719
       1.6414400       2504.1256
       1.6419801       2550.4631
       1.6425300       2695.5831
       1.6430800       2738.9332
       1.6436300       2718.6823
       1.6441700       2613.0222
       1.6447200       2551.5557
       1.6452700       2713.6858
       1.6458200       2603.1896
       1.6463701       2788.9332
       1.6469200       2705.8032
       1.6474600       2668.3683
       1.6480100       2685.5717
       1.6485600       2722.5215
       1.6491100       2610.4791
       1.6496600       2654.8632
       1.6502100       2761.5962
       1.6507601       2770.3806
       1.6513100       2723.4656
       1.6518600       2756.5870
       1.6524100       2672.3796
       1.6529599       2669.2332
       1.6535100       2772.0989
       1.6540700       2607.8772
       1.6546201       2668.1942
       1.6551700       2648.9378
       1.6557200       2724.5094
       1.6562700       2676.0286
       1.6568201       2668.8430
       1.6573800       2686.1901
       1.6579300       2756.3455
       1.6584800       2655.3202
       1.6590300       2675.4681
       1.6595900       2698.3806
       1.6601400       2725.7977
       1.6606899       2759.1104
       1.6612500       2708.4226
       1.6618000       2617.4245
       1.6623600       2613.8066
       1.6629100       2667.9492
       1.6634600       2580.5823
       1.6640199       2689.2460
       1.6645700       2661.9829
       1.6651300       2550.9780
       1.6656801       2593.2173
       1.6662400       2690.6556
       1.6667900       2589.2311
       1.6673501       2698.2548
       1.6679100       2652.9686
       1.6684600       2591.0668
       1.6690201       2687.8715
       1.6695700       2724.8474
       1.6701300       2740.8988
       1.6706899       2711.1273
       1.6712400       2653.2237
       1.6718000       2676.7001
       1.6723599       2504.4532
       1.6729200       2656.3496
       1.6734700       2689.3301
       1.6740299       2710.7249
       1.6745900       2717.7218
       1.6751500       2685.2329
       1.6757100       2440.3640
       1.6762600       2689.3786
       1.6768200       2573.3345
       1.6773800       2738.2747
       1.6779400       2694.8490
       1.6785001       2666.7771
       1.6790600       2663.6376
       1.6796200       2611.5439
       1.6801800       2589.8346
       1.6807400       2513.1257
       1.6813000       2459.1556
       1.6818600       2529.3528
       1.6824200       2517.9116
       1.6829799       2602.4267
       1.6835400       2625.6085
       1.6841000       2613.4403
       1.6846600       2623.1561
       1.6852300       2686.6367
       1.6857899       2681.5675
       1.6863500       2536.6157
       1.6869100       2611.4620
       1.6874700       2643.6061
       1.6880400       2620.6721
       1.6885999       2655.1739
       1.6891600       2652.3845
       1.6897300       2554.7866
       1.6902900       2670.6082
       1.6908500       2569.8153
       1.6914200       2687.7475
       1.6919800       2675.2038
       1.6925400       2709.4787
       1.6931100       2627.8954
       1.6936700       2673.2870
       1.6942400       2700.3434
       1.6948000       2699.3054
       1.6953700       2672.0582
       1.6959300       2681.0739
       1.6964999       2652.5965
       1.6970600       2668.0141
       1.6976300       2585.6755
       1.6981900       2644.4506
       1.6987600       2600.9850
       1.6993300       2642.2147
       1.6998900       2499.7811
       1.7004600       2618.6207
       1.7010300       2512.9113
       1.7015899       2519.8090
       1.7021600       2643.4217
       1.7027299       2608.6380
       1.7032900       2637.3716
       1.7038600       2631.5270
       1.7044300       2673.4411
       1.7050000       2648.9790
       1.7055700       2637.8040
       1.7061400       2665.8482
       1.7067000       2548.9247
       1.7072700       2572.0474
       1.7078400       2589.7191
       1.7084100       2644.2778
       1.7089800       2604.6197
       1.7095500       2622.3907
       1.7101200       2616.7634
       1.7106900       2592.6949
       1.7112600       2225.4122
       1.7118300       2617.3164
       1.7124000       2590.1887
       1.7129700       2643.1325
       1.7135400       2622.7726
       1.7141200       2614.6761
       1.7146900       2666.9360
       1.7152600       2665.5259
       1.7158300       2613.3013
       1.7164000       2546.4822
       1.7169700       2655.5210
       1.7175500       2628.4616
       1.7181200       2631.1459
       1.7186900       2618.6704
       1.7192600       2644.3175
       1.7198400       2601.8598
       1.7204100       2621.6134
       1.7209899       2518.8576
       1.7215600       2639.4476
       1.7221299       2636.3626
       1.7227100       2609.8109
       1.7232800       2445.5838
       1.7238600       2562.4076
       1.7244300       2605.4285
       1.7250000       2601.3311
       1.7255800       2592.4835
       1.7261600       2603.4238
       1.7267300       2607.5884
       1.7273099       2595.1145
       1.7278800       2563.2652
       1.7284600       2533.6606
       1.7290300       2573.7985
       1.7296100       2623.8665
       1.7301900       2588.3942
       1.7307600       2497.9109
       1.7313401       2567.4667
       1.7319200       2572.7870
       1.7324899       2604.2809
       1.7330700       2300.7142
       1.7336500       2542.2758
       1.7342300       2425.4105
       1.7348100       2563.8861
       1.7353801       2505.0989
       1.7359600       2458.7954
       1.7365400       2318.4587
       1.7371200       2412.2530
       1.7377000       2494.9318
       1.7382801       2507.7925
       1.7388600       2535.0793
       1.7394400       2503.2944
       1.7400200       2575.6626
       1.7406000       2535.2781
       1.7411799       2385.2342
       1.7417600       2572.6663
       1.7423400       2508.4039
       1.7429200       2537.3569
       1.7435000       2555.8479
       1.7440799       2570.5077
       1.7446600       2608.4468
       1.7452400       2527.4632
       1.7458200       2521.2612
       1.7464100       2560.4084
       1.7469900       2397.5790
       1.7475700       2550.8852
       1.7481600       2576.1948
       1.7487400       2598.3538
       1.7493200       2595.8203
       1.7499000       2535.9162
       1.7504900       2520.1376
       1.7510700       2512.2608
       1.7516500       2560.2578
       1.7522399       2565.4950
       1.7528200       2550.7170
       1.7534100       2565.2017
       1.7539901       2550.4528
       1.7545700       2539.1462
       1.7551600       2517.6925
       1.7557400       2521.8556
       1.7563300       2559.8496
       1.7569200       2529.8706
       1.7575001       2568.5416
       1.7580900       2566.9554
       1.7586700       2513.9500
       1.7592601       2559.7503
       1.7598500       2557.0311
       1.7604300       2518.8030
       1.7610199       2479.7989
       1.7616100       2517.8211
       1.7621900       2402.4439
       1.7627800       2483.9822
       1.7633700       2581.4831
       1.7639600       2504.5434
       1.7645400       2444.6439
       1.7651300       2533.9181
       1.7657200       2576.3835
       1.7663100       2510.6579
       1.7668999       2499.2443
       1.7674900       2526.1511
       1.7680800       2509.4982
       1.7686700       2422.1115
       1.7692600       2540.2069
       1.7698500       2486.7623
       1.7704300       2533.0084
       1.7710299       2471.1486
       1.7716200       2452.9931
       1.7722000       2494.7202
       1.7728000       2403.8078
       1.7733901       2491.4369
       1.7739800       2486.7501
       1.7745700       2516.0589
       1.7751600       2463.1417
       1.7757500       2471.5507
       1.7763500       2498.7463
       1.7769400       2460.4157
       1.7775300       2412.3174
       1.7781200       2501.1379
       1.7787200       2461.4832
       1.7793100       2474.8749
       1.7799000       2511.9683
       1.7805001       2493.1711
       1.7810900       2523.7258
       1.7816800       2464.1152
       1.7822700       2509.7564
       1.7828701       2447.1872
       1.7834600       2508.7542
       1.7840600       2446.7956
       1.7846500       2449.5828
       1.7852499       2430.6338
       1.7858400       2468.2480
       1.7864400       2453.9760
       1.7870300       2490.8582
       1.7876300       2473.9342
       1.7882299       2518.4029
       1.7888200       2511.0371
       1.7894200       2514.2835
       1.7900100       2517.2277
       1.7906100       2504.3047
       1.7912101       2501.3776
       1.7918000       2487.2892
       1.7924000       2497.5808
       1.7930000       2463.5398
       1.7936000       2388.6346
       1.7941999       2399.1993
       1.7947900       2487.3971
       1.7953900       2508.5286
       1.7959900       2501.1712
       1.7965900       2512.9125
       1.7971900       2446.8444
       1.7977901       2483.4287
       1.7983800       2470.2364
       1.7989800       2459.1776
       1.7995800       2481.6814
       1.8001800       2487.3281
       1.8007801       2419.4816
       1.8013800       2471.8549
       1.8019800       2449.6401
       1.8025900       2426.7008
       1.8031900       2363.8192
       1.8037900       2455.4563
       1.8043900       2452.3529
       1.8049901       2469.7296
       1.8055900       2384.6388
       1.8062000       2487.8136
       1.8068000       2423.7480
       1.8074000       2461.8753
       1.8080000       2450.6581
       1.8085999       2440.5277
       1.8092099       2468.1935
       1.8098100       2425.4678
       1.8104100       2369.1466
       1.8110200       2411.4906
       1.8116200       2422.6673
       1.8122200       2411.6659
       1.8128300       2470.2884
       1.8134300       2453.0977
       1.8140399       2456.7808
       1.8146400       2436.5483
       1.8152500       2454.5350
       1.8158500       2304.0091
       1.8164600       2383.0059
       1.8170600       2348.1295
       1.8176700       2172.6362
       1.8182700       2238.7928
       1.8188800       2357.8332
       1.8194900       2389.7674
       1.8200901       2423.4893
       1.8207000       2446.8694
       1.8213100       2469.6043
       1.8219100       2445.0311
       1.8225200       2407.5091
       1.8231300       2363.0500
       1.8237400       2418.1748
       1.8243400       2442.7300
       1.8249500       2467.5501
       1.8255600       2421.9489
       1.8261700       2456.2415
       1.8267800       2450.8130
       1.8273900       2452.2585
       1.8279999       2407.2527
       1.8286099       2395.2436
       1.8292100       2360.9520
       1.8298200       2410.2113
       1.8304300       2381.4265
       1.8310400       2415.3803
       1.8316500       2450.6180
       1.8322700       2378.5040
       1.8328800       2427.8262
       1.8334900       2461.3986
       1.8341000       2447.1203
       1.8347100       2381.3896
       1.8353200       2404.0298
       1.8359300       2393.5617
       1.8365400       2383.0554
       1.8371600       2372.7067
       1.8377700       2309.1660
       1.8383800       2392.2236
       1.8390000       2445.4396
       1.8396100       2371.6677
       1.8402200       2334.4091
       1.8408300       2438.3318
       1.8414500       2370.8373
       1.8420600       2283.2577
       1.8426700       2244.5858
       1.8432900       2371.6581
       1.8439000       2388.4578
       1.8445200       2398.3998
       1.8451300       2329.3313
       1.8457500       2430.7520
       1.8463600       2430.0280
       1.8469800       2224.0254
       1.8475900       2357.3320
       1.8482100       2387.7462
       1.8488300       2418.2538
       1.8494400       2384.2924
       1.8500600       2376.6028
       1.8506800       2420.1535
       1.8512900       2412.7307
       1.8519100       2375.1697
       1.8525300       2329.9232
       1.8531500       2250.3808
       1.8537600       2396.8244
       1.8543800       2409.8882
       1.8550000       2384.4384
       1.8556200       2310.3068
       1.8562400       2265.4544
       1.8568500       2405.6663
       1.8574700       2406.6744
       1.8580900       2350.7769
       1.8587101       2264.4997
       1.8593301       2409.1574
       1.8599499       2376.6407
       1.8605700       2388.1850
       1.8611900       2374.3346
       1.8618100       2356.5395
       1.8624300       2371.7998
       1.8630500       2325.3728
       1.8636700       2370.2237
       1.8643000       2340.9625
       1.8649200       2402.8092
       1.8655400       2362.7115
       1.8661600       2272.5448
       1.8667800       2339.4011
       1.8674099       2386.8380
       1.8680300       2343.9512
       1.8686500       2359.7015
       1.8692700       2384.4965
       1.8699000       2347.6209
       1.8705200       2368.4064
       1.8711400       2380.9336
       1.8717700       2320.7684
       1.8723900       2352.5722
       1.8730201       2222.9826
       1.8736399       2343.3270
       1.8742599       2279.6334
       1.8748900       2207.1774
       1.8755100       1909.5090
       1.8761400       2196.8770
       1.8767600       2274.1744
       1.8773900       2319.8410
       1.8780200       2226.3663
       1.8786401       2343.9633
       1.8792700       2336.2136
       1.8798900       2328.6477
       1.8805200       2357.7708
       1.8811500       2361.4413
       1.8817700       2366.4335
       1.8824000       2277.0373
       1.8830301       2363.4109
       1.8836600       2351.7522
       1.8842800       2354.7437
       1.8849100       2311.9741
       1.8855400       2330.5527
       1.8861700       2196.7769
       1.8868001       2319.8102
       1.8874300       2335.2726
       1.8880600       2256.4915
       1.8886900       2278.4459
       1.8893100       2229.9762
       1.8899400       2288.1009
       1.8905700       2203.2982
       1.8911999       2269.6799
       1.8918300       2277.2995
       1.8924700       2228.4681
       1.8931000       2263.1513
       1.8937300       2271.8670
       1.8943599       2303.4602
       1.8949900       2231.1034
       1.8956200       2317.3389
       1.8962600       2240.8430
       1.8968900       2258.5754
       1.8975199       2242.3026
       1.8981500       2318.3930
       1.8987800       2330.4610
       1.8994200       2226.3605
       1.9000500       2343.7342
       1.9006799       2300.4050
       1.9013200       2303.4483
       1.9019500       2335.7407
       1.9025900       2312.4113
       1.9032201       2320.0532
       1.9038500       2255.6114
       1.9044900       2298.8517
       1.9051200       2248.7542
       1.9057600       2300.7589
       1.9063900       2304.5787
       1.9070300       2331.1433
       1.9076700       2326.9709
       1.9083000       2283.7574
       1.9089400       2234.9697
       1.9095700       2330.2821
       1.9102100       2308.0080
       1.9108500       2294.6916
       1.9114799       2308.9793
       1.9121200       2210.2929
       1.9127600       2252.3946
       1.9133900       2305.7711
       1.9140300       2305.9133
       1.9146700       2273.1212
       1.9153100       2304.2506
       1.9159499       2266.5272
       1.9165900       2290.2064
       1.9172300       2309.6161
       1.9178600       2274.1524
       1.9184999       2310.3785
       1.9191400       2310.9904
       1.9197800       2151.2705
       1.9204201       2293.8097
       1.9210600       2270.3887
       1.9217000       2237.6977
       1.9223400       2259.4216
       1.9229800       2303.6769
       1.9236300       2293.5313
       1.9242700       2290.0147
       1.9249099       2277.5397
       1.9255500       2291.2510
       1.9261900       2197.2728
       1.9268301       2244.3192
       1.9274700       2259.7000
       1.9281200       2279.3030
       1.9287601       2196.9015
       1.9294000       2275.5534
       1.9300500       2281.3742
       1.9306901       2254.3496
       1.9313300       2108.9098
       1.9319800       2279.1494
       1.9326200       2270.5749
       1.9332700       2273.5413
       1.9339100       2204.6909
       1.9345599       2194.5102
       1.9352000       2254.7437
       1.9358500       2269.8352
       1.9364901       2294.4253
       1.9371400       2271.8996
       1.9377800       2289.4344
       1.9384300       2263.7628
       1.9390700       2205.0943
       1.9397200       2216.8000
       1.9403700       2271.3688
       1.9410100       2226.8600
       1.9416600       2229.3154
       1.9423100       2249.0773
       1.9429500       2181.6101
       1.9436001       2074.9171
       1.9442500       2157.5864
       1.9449000       1993.8376
       1.9455500       1951.0920
       1.9461900       2166.6780
       1.9468400       2196.1570
       1.9474900       2152.3807
       1.9481400       2226.2984
       1.9487900       2175.8806
       1.9494400       2219.8067
       1.9500901       2167.3098
       1.9507400       2222.3263
       1.9513900       1938.1213
       1.9520400       2247.6611
       1.9526900       2255.4015
       1.9533401       2258.1396
       1.9539900       2210.6918
       1.9546500       2189.0530
       1.9553000       2248.7345
       1.9559500       2252.3406
       1.9566000       2252.7902
       1.9572500       2242.8851
       1.9579099       2242.4226
       1.9585600       2193.1431
       1.9592100       2201.8709
       1.9598600       2189.4925
       1.9605200       2177.1868
       1.9611700       2234.9785
       1.9618200       2136.5809
       1.9624799       2243.4707
       1.9631300       2120.5777
       1.9637901       2126.4641
       1.9644400       2198.2527
       1.9651000       2240.2966
       1.9657500       2237.7078
       1.9664100       2230.2541
       1.9670600       2234.3601
       1.9677200       2220.1538
       1.9683700       2223.9319
       1.9690300       2208.5221
       1.9696900       2228.1266
       1.9703400       2221.1470
       1.9710000       2225.1755
       1.9716600       2203.8383
       1.9723099       2188.9873
       1.9729700       2037.5400
       1.9736300       2146.6188
       1.9742900       2172.2922
       1.9749399       2196.2404
       1.9756000       2195.5583
       1.9762599       2209.0942
       1.9769200       2197.2392
       1.9775800       2198.8762
       1.9782400       1935.8747
       1.9789000       2197.9544
       1.9795600       2126.7842
       1.9802200       2209.2600
       1.9808800       2182.8379
       1.9815400       2208.3786
       1.9822000       2159.2602
       1.9828600       2206.8437
       1.9835200       2202.1185
       1.9841800       2218.8609
       1.9848400       2198.6296
       1.9855000       2110.3276
       1.9861701       2065.7846
       1.9868300       2048.8918
       1.9874901       2183.2145
       1.9881500       2174.8047
       1.9888200       2162.3009
       1.9894800       2199.9609
       1.9901400       2193.5341
       1.9908100       2176.2421
       1.9914700       2183.4406
       1.9921300       2109.2365
       1.9928000       2163.3521
       1.9934601       2111.4548
       1.9941300       2098.4095
       1.9947900       2173.1089
       1.9954500       2138.1213
       1.9961200       2175.9260
       1.9967901       2094.0438
       1.9974500       2113.2332
       1.9981200       2090.2483
       1.9987800       2174.5217
       1.9994500       2170.7257
       2.0000899       2181.1170
       2.0007801       2169.1382
       2.0014501       2155.0898
       2.0021200       2186.8317
       2.0027800       2101.5356
       2.0034499       2135.5712
       2.0041201       2120.7158
       2.0047901       2171.5646
       2.0054600       2115.0574
       2.0061200       2088.2453
       2.0067899       2169.2736
       2.0074601       2115.7593
       2.0081301       2168.0881
       2.0088000       2143.2196
       2.0094700       2108.5627
       2.0101399       2150.6283
       2.0108099       2163.6519
       2.0114801       2146.3973
       2.0121500       2159.5884
       2.0128200       2160.8444
       2.0134900       2140.0452
       2.0141599       2100.2211
       2.0148301       2142.3334
       2.0155101       2137.9250
       2.0161800       2149.8859
       2.0168500       2147.8301
       2.0175200       2140.4171
       2.0181899       2130.5499
       2.0188701       2133.2850
       2.0195401       2117.4763
       2.0202100       2118.0751
       2.0208900       2076.4175
       2.0215600       2055.7797
       2.0222299       2121.0728
       2.0229101       2138.6725
       2.0235801       2081.9476
       2.0242600       2087.8052
       2.0249300       2123.3322
       2.0256100       2122.4263
       2.0262799       2134.2181
       2.0269599       2082.8125
       2.0276301       2116.6933
       2.0283101       2109.1498
       2.0289800       2070.1121
       2.0296600       2098.2112
       2.0303400       2050.9183
       2.0310199       2061.6061
       2.0316899       2134.3490
       2.0323701       2117.0943
       2.0330501       2117.0830
       2.0337200       2099.3198
       2.0344000       2100.5489
       2.0350800       2027.8942
       2.0357599       2065.0154
       2.0364399       2118.1487
       2.0371201       2091.4878
       2.0377901       2062.4516
       2.0384700       1998.3913
       2.0391500       2116.3914
       2.0398300       2116.3559
       2.0405099       2092.1665
       2.0411899       2084.1311
       2.0418701       2026.6207
       2.0425501       2102.2422
       2.0432401       2091.2800
       2.0439200       2125.2366
       2.0446000       2096.5075
       2.0452800       2086.7161
       2.0459599       2080.0352
       2.0466399       2112.4260
       2.0473299       2077.9145
       2.0480101       2086.6633
       2.0486901       2107.4006
       2.0493701       2108.1410
       2.0500600       2100.8347
       2.0507400       2099.0909
       2.0514200       2081.9318
       2.0521100       2089.5901
       2.0527899       1992.0970
       2.0534799       2094.0353
       2.0541601       2046.4262
       2.0548401       2075.5554
       2.0555301       2094.4941
       2.0562201       2063.6138
       2.0569000       2073.3471
       2.0575900       2075.7233
       2.0582700       2075.1528
       2.0589600       2022.8597
       2.0596399       2072.1518
       2.0603299       2022.9812
       2.0610199       1979.6098
       2.0617099       2083.9290
       2.0623901       2060.2260
       2.0630801       2083.2448
       2.0637701       1790.4821
       2.0644500       2079.5934
       2.0651400       2059.2832
       2.0658300       2089.5136
       2.0665200       2079.4447
       2.0672100       2028.6769
       2.0678999       1980.9360
       2.0685899       2036.2345
       2.0692799       2075.9791
       2.0699699       2024.8139
       2.0706601       1960.8161
       2.0713501       2046.9747
       2.0720401       1988.1025
       2.0727301       2052.4143
       2.0734200       2063.3128
       2.0741100       1998.2552
       2.0748000       2047.3479
       2.0754900       2051.3382
       2.0761800       2032.3912
       2.0768800       2004.7235
       2.0775700       1966.7199
       2.0782599       2056.1005
       2.0789599       2071.3010
       2.0796499       2037.9987
       2.0803399       2000.8979
       2.0810299       2029.1908
       2.0817299       2042.5089
       2.0824201       2031.1988
       2.0831201       2011.6636
       2.0838101       1956.5128
       2.0845101       1979.8917
       2.0852001       2003.4601
       2.0858901       2026.8937
       2.0865901       2043.7175
       2.0872900       2021.5334
       2.0879800       2021.1220
       2.0886800       2012.7116
       2.0893700       2032.5444
       2.0900700       2014.0302
       2.0907700       2025.1294
       2.0914600       2038.5730
       2.0921600       1935.4600
       2.0928600       2029.6543
       2.0935600       2039.6513
       2.0942500       2005.2354
       2.0949500       2046.3779
       2.0956500       2011.0466
       2.0963500       2011.1597
       2.0970500       1993.0198
       2.0977499       1985.7840
       2.0984499       2035.9117
       2.0991399       1991.2923
       2.0998399       1999.1409
       2.1005399       2045.1330
       2.1012399       1984.4636
       2.1019399       2000.7602
       2.1026499       1991.7801
       2.1033499       2032.6796
       2.1040499       2041.1993
       2.1047499       2015.5070
       2.1054499       2035.3718
       2.1061499       2016.4190
       2.1068499       1996.1199
       2.1075599       1967.5475
       2.1082599       1997.4325
       2.1089599       1996.3576
       2.1096699       1945.9111
       2.1103699       2010.5185
       2.1110699       2002.3753
       2.1117799       1993.8443
       2.1124799       2014.9188
       2.1131799       1970.0127
       2.1138899       2012.6991
       2.1145899       1977.2063
       2.1152999       1999.2489
       2.1159999       2000.5319
       2.1167099       1900.4717
       2.1174099       1998.7477
       2.1181200       1965.6304
       2.1188300       2003.3307
       2.1195300       1932.6805
       2.1202400       1947.1458
       2.1209400       1984.9951
       2.1216500       1961.1014
       2.1223600       1981.0013
       2.1230700       1944.7627
       2.1237800       1904.4340
       2.1244800       1957.7540
       2.1251900       1978.9348
       2.1259000       1997.9387
       2.1266100       1957.1245
       2.1273201       1991.8599
       2.1280301       1946.7647
       2.1287401       1977.1176
       2.1294401       1975.4120
       2.1301501       1982.0661
       2.1308601       1994.4959
       2.1315701       1987.2023
       2.1322899       1959.5747
       2.1329999       1986.8105
       2.1337099       1983.8837
       2.1344199       1956.9739
       2.1351299       1984.1420
       2.1358399       1890.1004
       2.1365499       1996.6408
       2.1372700       1986.1668
       2.1379800       1978.0485
       2.1386900       1971.5582
       2.1394000       1962.7555
       2.1401200       1964.2054
       2.1408300       1978.5022
       2.1415401       1969.5078
       2.1422601       1983.6023
       2.1429701       1981.1650
       2.1436901       1941.5432
       2.1443999       1950.7188
       2.1451199       1964.9868
       2.1458299       1917.9796
       2.1465399       1936.5521
       2.1472600       1966.3223
       2.1479800       1968.8516
       2.1486900       1956.9081
       2.1494100       1928.0304
       2.1501200       1962.5801
       2.1508400       1970.4940
       2.1515601       1962.3320
       2.1522801       1960.7074
       2.1529901       1925.9867
       2.1537099       1936.8648
       2.1544299       1923.8811
       2.1551499       1939.6131
       2.1558700       1953.3548
       2.1565800       1953.4551
       2.1573000       1933.0058
       2.1580200       1955.5464
       2.1587400       1948.5162
       2.1594601       1928.1413
       2.1601801       1922.0632
       2.1609001       1949.6163
       2.1616199       1912.9106
       2.1623399       1924.9575
       2.1630599       1927.4051
       2.1637800       1932.2332
       2.1645100       1894.2877
       2.1652300       1851.9040
       2.1659501       1730.5724
       2.1666701       1837.2553
       2.1673901       1861.5313
       2.1681199       1877.9188
       2.1688399       1915.5789
       2.1695600       1894.6968
       2.1702800       1903.8888
       2.1710100       1915.0939
       2.1717300       1915.6142
       2.1724601       1932.4993
       2.1731801       1925.7801
       2.1738999       1914.5017
       2.1746299       1905.0507
       2.1753500       1901.1066
       2.1760800       1894.0621
       2.1768000       1856.7539
       2.1775301       1919.0503
       2.1782601       1825.7935
       2.1789801       1862.2334
       2.1797099       1890.2348
       2.1804299       1932.0900
       2.1811600       1921.4216
       2.1818900       1913.6661
       2.1826100       1830.9676
       2.1833401       1917.4423
       2.1840701       1914.1636
       2.1847999       1922.3226
       2.1855299       1901.8881
       2.1862500       1913.6241
       2.1869800       1908.0305
       2.1877100       1883.2029
       2.1884401       1805.5538
       2.1891699       1916.0990
       2.1898999       1873.4714
       2.1906300       1857.3979
       2.1913600       1898.8145
       2.1920900       1916.5018
       2.1928201       1914.2053
       2.1935501       1903.2971
       2.1942799       1894.0699
       2.1950200       1877.3735
       2.1957500       1897.2021
       2.1964800       1907.2045
       2.1972101       1902.8483
       2.1979401       1890.5487
       2.1986799       1896.8871
       2.1994100       1910.4416
       2.2001400       1879.6279
       2.2008801       1866.9450
       2.2016101       1879.6535
       2.2023399       1885.5713
       2.2030799       1895.3509
       2.2038100       1885.1340
       2.2045500       1876.8664
       2.2052801       1886.9250
       2.2060201       1779.0408
       2.2067499       1779.8891
       2.2074900       1860.3593
       2.2082200       1877.0636
       2.2089601       1809.5430
       2.2097001       1879.9465
       2.2104299       1872.8057
       2.2111700       1872.7621
       2.2119100       1861.4885
       2.2126400       1883.4485
       2.2133801       1887.4260
       2.2141199       1882.1607
       2.2148600       1873.1339
       2.2156000       1878.4426
       2.2163301       1860.8704
       2.2170701       1868.3186
       2.2178099       1877.3296
       2.2185500       1871.9510
       2.2192900       1883.0622
       2.2200301       1868.8688
       2.2207699       1874.9445
       2.2215099       1841.9098
       2.2222500       1872.5316
       2.2229900       1872.7265
       2.2237301       1846.6736
       2.2244699       1863.9338
       2.2252200       1869.0230
       2.2259600       1837.5494
       2.2267001       1819.6469
       2.2274401       1863.5194
       2.2281799       1791.5280
       2.2289300       1865.5013
       2.2296700       1861.0400
       2.2304101       1834.1723
       2.2311599       1851.6336
       2.2319000       1849.5374
       2.2326500       1857.0866
       2.2333901       1863.1813
       2.2341299       1854.6226
       2.2348800       1844.2865
       2.2356200       1858.1258
       2.2363701       1856.5628
       2.2371099       1858.1660
       2.2378600       1839.8761
       2.2386000       1797.9814
       2.2393501       1828.3796
       2.2400999       1809.5366
       2.2408400       1852.4893
       2.2415900       1848.6375
       2.2423401       1807.4426
       2.2430899       1833.1167
       2.2438300       1845.5205
       2.2445800       1831.3038
       2.2453301       1837.0851
       2.2460799       1837.2533
       2.2468300       1840.0975
       2.2475801       1806.7505
       2.2483201       1813.8332
       2.2490699       1840.2065
       2.2498200       1831.4947
       2.2505701       1840.5172
       2.2513199       1819.5284
       2.2520700       1831.3821
       2.2528300       1831.5789
       2.2535801       1826.0671
       2.2543299       1744.1135
       2.2550800       1817.7302
       2.2558300       1816.3044
       2.2565801       1836.0272
       2.2573299       1805.6312
       2.2580900       1814.5136
       2.2588401       1837.4483
       2.2595899       1827.1196
       2.2603500       1827.1314
       2.2611001       1804.2852
       2.2618501       1800.9131
       2.2626100       1756.0607
       2.2633600       1771.5617
       2.2641201       1820.6344
       2.2648699       1817.5665
       2.2656200       1771.6857
       2.2663801       1810.6645
       2.2671399       1809.0835
       2.2678900       1811.7235
       2.2686501       1821.6963
       2.2693999       1811.2113
       2.2701600       1804.6386
       2.2709200       1814.6690
       2.2716701       1772.3198
       2.2724299       1811.9860
       2.2731900       1811.8224
       2.2739501       1808.5562
       2.2746999       1767.9614
       2.2754600       1790.4946
       2.2762201       1795.3315
       2.2769799       1796.2336
       2.2777400       1808.1829
       2.2785001       1794.8343
       2.2792599       1794.3778
       2.2800200       1776.7489
       2.2807801       1792.0795
       2.2815399       1641.1502
       2.2823000       1793.7610
       2.2830601       1761.7259
       2.2838199       1774.9854
       2.2845800       1797.7365
       2.2853401       1780.6161
       2.2860999       1780.0312
       2.2868700       1784.3887
       2.2876301       1781.0618
       2.2883899       1787.2644
       2.2891500       1783.5953
       2.2899201       1793.1521
       2.2906799       1796.3436
       2.2914400       1773.6474
       2.2922101       1783.3557
       2.2929699       1786.1085
       2.2937400       1328.0801
       2.2945001       1492.8371
       2.2952700       1572.7066
       2.2960300       1555.2060
       2.2967999       1603.8042
       2.2975600       1576.5752
       2.2983301       1678.9971
       2.2990899       1661.1251
       2.2998600       1682.6000
       2.3006301       1674.7406
       2.3013899       1697.1562
       2.3021600       1714.5678
       2.3029301       1710.7793
       2.3037000       1690.7720
       2.3044600       1698.7712
       2.3052299       1734.0787
       2.3060000       1687.5506
       2.3067701       1686.2689
       2.3075399       1711.1750
       2.3083100       1742.6829
       2.3090799       1684.9635
       2.3098500       1704.5212
       2.3106201       1746.2560
       2.3113899       1683.8949
       2.3121600       1706.3262
       2.3129301       1744.9293
       2.3137000       1707.4056
       2.3144701       1743.7333
       2.3152399       1646.2483
       2.3160100       1692.9477
       2.3167801       1707.4728
       2.3175600       1705.0437
       2.3183300       1725.4137
       2.3190999       1676.5982
       2.3198800       1742.1763
       2.3206501       1699.6622
       2.3214200       1745.9222
       2.3222001       1696.1923
       2.3229699       1215.4388
       2.3237400       1413.1909
       2.3245201       1509.8324
       2.3252900       1529.8757
       2.3260701       1564.0699
       2.3268499       1627.6798
       2.3276200       1597.0417
       2.3283999       1541.4169
       2.3291700       1618.9272
       2.3299501       1602.4151
       2.3307300       1650.0025
       2.3315001       1654.1486
       2.3322799       1659.7217
       2.3330600       1636.7536
       2.3338301       1594.5878
       2.3346100       1675.0704
       2.3353901       1610.2666
       2.3361700       1684.8637
       2.3369501       1637.2532
       2.3377299       1591.4720
       2.3385100       1640.5038
       2.3392799       1597.5411
       2.3400600       1661.8116
       2.3408401       1692.8130
       2.3416200       1602.3778
       2.3424101       1671.4324
       2.3431900       1677.3314
       2.3439701       1665.8098
       2.3447499       1662.7297
       2.3455300       1604.5403
       2.3463099       1700.0963
       2.3470900       1632.7845
       2.3478799       1636.8149
       2.3486600       1673.1869
       2.3494401       1622.6826
       2.3502300       1680.1020
       2.3510101       1651.7403
       2.3517900       1665.1286
       2.3525801       1231.0708
       2.3533599       1373.5590
       2.3541501       1401.7468
       2.3549299       1553.5517
       2.3557100       1486.6083
       2.3564999       1534.7719
       2.3572900       1545.1851
       2.3580699       1500.6403
       2.3588600       1602.5712
       2.3596399       1558.8048
       2.3604300       1569.2904
       2.3612199       1547.0746
       2.3620000       1660.3528
       2.3627901       1541.6579
       2.3635800       1595.3964
       2.3643701       1594.8039
       2.3651600       1530.6297
       2.3659401       1684.3525
       2.3667300       1553.2208
       2.3675201       1630.5102
       2.3683100       1640.5835
       2.3691001       1586.0085
       2.3698900       1577.4998
       2.3706801       1607.4713
       2.3714700       1609.7269
       2.3722601       1591.4288
       2.3730500       1587.2644
       2.3738401       1546.3907
       2.3746300       1526.1388
       2.3754301       1538.2534
       2.3762200       1619.8716
       2.3770101       1648.2320
       2.3778000       1614.9968
       2.3785901       1604.4417
       2.3793900       1583.1475
       2.3801799       1657.3274
       2.3809700       1551.3875
       2.3817699       1643.9183
       2.3825600       1586.6264
       2.3833599       1121.5948
       2.3841500       1350.8994
       2.3849399       1444.3927
       2.3857400       1423.6407
       2.3865299       1425.0962
       2.3873301       1510.7136
       2.3881199       1496.8992
       2.3889201       1534.7748
       2.3897200       1500.6831
       2.3905201       1522.6354
       2.3913100       1523.5606
       2.3921101       1550.8598
       2.3929100       1467.9732
       2.3936999       1580.5075
       2.3945000       1521.5361
       2.3952999       1542.9031
       2.3961000       1579.7579
       2.3968999       1548.3322
       2.3977001       1472.8913
       2.3984900       1620.0428
       2.3992901       1579.0399
       2.4000900       1512.6076
       2.4008901       1540.8992
       2.4016900       1596.3172
       2.4024899       1582.6749
       2.4033000       1586.3884
       2.4040999       1498.2229
       2.4049001       1614.0258
       2.4057000       1508.4785
       2.4065001       1647.5445
       2.4073000       1532.9451
       2.4081099       1539.4811
       2.4089100       1593.4472
       2.4097099       1590.9530
       2.4105201       1599.0212
       2.4113200       1525.1543
       2.4121201       1613.5768
       2.4129300       1594.3062
       2.4137299       1468.9773
       2.4145401       1154.5884
       2.4153399       1404.3415
       2.4161501       1311.4236
       2.4169500       1416.4341
       2.4177599       1514.4272
       2.4185600       1475.8026
       2.4193699       1449.3417
       2.4201701       1447.7616
       2.4209800       1527.8583
       2.4217899       1520.8444
       2.4226000       1487.2747
       2.4233999       1475.6537
       2.4242101       1542.3939
       2.4250200       1543.2234
       2.4258299       1463.2577
       2.4266400       1504.8642
       2.4274499       1534.8178
       2.4282501       1491.0408
       2.4290600       1524.6910
       2.4298699       1492.6839
       2.4306800       1577.1496
       2.4314899       1467.4475
       2.4323001       1560.5468
       2.4331200       1614.2616
       2.4339299       1447.5240
       2.4347401       1539.2050
       2.4355500       1489.0944
       2.4363599       1507.4587
       2.4371700       1564.5093
       2.4379799       1451.3022
       2.4388001       1559.7485
       2.4396100       1543.5597
       2.4404199       1541.1221
       2.4412401       1493.1672
       2.4420500       1550.5924
       2.4428699       1533.9933
       2.4436800       1602.9411
       2.4444900       1402.0831
       2.4453101       1601.3937
       2.4461200       1297.7713
       2.4469399       1344.9090
       2.4477501       1250.4354
       2.4485700       1478.6659
       2.4493899       1381.6711
       2.4502001       1453.9547
       2.4510200       1405.0769
       2.4518399       1383.3812
       2.4526501       1502.9618
       2.4534700       1442.0170
       2.4542899       1434.5560
       2.4551101       1501.9999
       2.4559300       1454.3046
       2.4567399       1400.5130
       2.4575601       1407.8828
       2.4583800       1517.8196
       2.4591999       1452.5463
       2.4600201       1516.7814
       2.4608400       1480.0348
       2.4616599       1542.6261
       2.4624801       1478.5215
       2.4633000       1495.0426
       2.4641199       1536.8044
       2.4649501       1472.4844
       2.4657700       1479.9412
       2.4665899       1555.8486
       2.4674101       1474.7089
       2.4682300       1480.8206
       2.4690599       1513.6724
       2.4698801       1430.5386
       2.4707000       1522.1865
       2.4715300       1472.6501
       2.4723499       1479.3509
       2.4731700       1458.9002
       2.4740000       1528.6767
       2.4748299       1488.2475
       2.4756501       1460.6042
       2.4764700       1425.4723
       2.4772999       1571.8256
       2.4781301       1516.6881
       2.4789500       1244.1347
       2.4797800       1342.7135
       2.4806001       1374.4871
       2.4814301       1382.8623
       2.4822600       1333.8614
       2.4830899       1366.2509
       2.4839101       1456.8485
       2.4847400       1482.9110
       2.4855700       1390.8482
       2.4863999       1356.9739
       2.4872301       1365.3006
       2.4880600       1431.2278
       2.4888899       1432.7190
       2.4897201       1444.4450
       2.4905500       1511.2711
       2.4913800       1386.2027
       2.4922099       1472.5281
       2.4930401       1389.1859
       2.4938700       1535.8971
       2.4947000       1408.7024
       2.4955299       1491.1979
       2.4963601       1407.2289
       2.4971900       1481.2328
       2.4980299       1438.5159
       2.4988599       1475.0579
       2.4996600       1426.0332
       2.5005200       1425.9386
       2.5013599       1443.7199
       2.5021901       1473.5896
       2.5030200       1448.9405
       2.5038600       1450.7300
       2.5046999       1443.1155
       2.5055301       1465.8207
       2.5063601       1522.8252
       2.5072000       1454.5783
       2.5080400       1413.3964
       2.5088699       1400.0885
       2.5097101       1488.5202
       2.5105500       1462.5701
       2.5113900       1351.9347
       2.5122199       1382.6103
       2.5130601       1407.6322
       2.5139000       1367.9948
       2.5147400       1338.5242
       2.5155699       1407.7291
       2.5164101       1396.3065
       2.5172501       1431.6790
       2.5180900       1355.8924
       2.5189199       1403.3543
       2.5197599       1410.3596
       2.5206101       1456.4136
       2.5214500       1423.2939
       2.5222900       1463.3780
       2.5231199       1419.0557
       2.5239699       1374.4707
       2.5248101       1458.0095
       2.5256500       1410.2869
       2.5264900       1445.4935
       2.5273399       1368.7968
       2.5281799       1413.6389
       2.5290201       1433.9625
       2.5298600       1468.8069
       2.5307100       1433.6307
       2.5315499       1422.7418
       2.5323901       1415.1288
       2.5332401       1422.0050
       2.5340800       1456.1679
       2.5349300       1489.9616
       2.5357699       1415.7524
       2.5366199       1463.3532
       2.5374601       1334.5210
       2.5383101       1447.8630
       2.5391600       1445.3015
       2.5400100       1437.5298
       2.5408499       1391.7240
       2.5416901       1338.8587
       2.5425401       1400.4470
       2.5433900       1501.7929
       2.5442400       1309.1205
       2.5450900       1466.5026
       2.5459299       1468.0875
       2.5467801       1266.0112
       2.5476301       1368.6744
       2.5484800       1378.9579
       2.5493300       1405.7198
       2.5501800       1420.9521
       2.5510299       1305.5946
       2.5518799       1345.0898
       2.5527301       1338.2041
       2.5535800       1410.7608
       2.5544300       1382.8671
       2.5552800       1341.3875
       2.5561399       1327.9420
       2.5569899       1348.2036
       2.5578401       1396.6535
       2.5586901       1394.7028
       2.5595400       1450.1675
       2.5604000       1339.1796
       2.5612600       1440.5270
       2.5621099       1347.8666
       2.5629599       1449.7833
       2.5638199       1402.6166
       2.5646701       1380.8492
       2.5655200       1423.0002
       2.5663800       1366.7478
       2.5672400       1373.0539
       2.5680900       1474.1352
       2.5689499       1371.4202
       2.5698099       1436.6172
       2.5706601       1351.0816
       2.5715201       1464.8563
       2.5723701       1417.7477
       2.5732300       1420.4768
       2.5740900       1401.5594
       2.5749500       1388.5876
       2.5758100       1421.8992
       2.5766599       1433.7110
       2.5775199       1385.3550
       2.5783899       1390.4384
       2.5792401       1470.0427
       2.5801001       1393.1171
       2.5809600       1458.8171
       2.5818300       1239.3446
       2.5826900       1397.5839
       2.5835500       1371.3000
       2.5844100       1357.4741
       2.5852599       1296.2588
       2.5861199       1310.3560
       2.5869901       1434.2003
       2.5878501       1413.4023
       2.5887101       1397.9520
       2.5895700       1393.1154
       2.5904400       1374.5413
       2.5913000       1393.0726
       2.5921700       1426.6835
       2.5930400       1387.8233
       2.5939000       1436.6636
       2.5947599       1343.1669
       2.5956199       1371.0016
       2.5964899       1402.1475
       2.5973599       1442.6563
       2.5982201       1401.8971
       2.5990901       1402.5387
       2.5999601       1333.6711
       2.6008201       1404.9339
       2.6016901       1426.8213
       2.6025600       1445.2166
       2.6034200       1378.7767
       2.6042900       1392.4206
       2.6051600       1371.0860
       2.6060300       1439.3409
       2.6069000       1388.1383
       2.6077700       1417.1724
       2.6086400       1366.7198
       2.6095099       1381.4450
       2.6103699       1410.7352
       2.6112399       1424.7032
       2.6121199       1331.1963
       2.6129899       1424.0198
       2.6138599       1429.0732
       2.6147299       1382.0260
       2.6156001       1439.3139
       2.6164701       1326.2509
       2.6173401       1362.2637
       2.6182201       1362.1985
       2.6190901       1357.3101
       2.6199601       1316.8710
       2.6208301       1358.4461
       2.6217101       1370.4634
       2.6225801       1327.6180
       2.6234601       1378.8705
       2.6243300       1352.1221
       2.6252100       1280.0813
       2.6260800       1291.8662
       2.6269600       1387.7491
       2.6278300       1361.1911
       2.6287100       1404.5980
       2.6295800       1344.2983
       2.6304600       1351.2406
       2.6313400       1385.7141
       2.6322200       1419.4859
       2.6330900       1361.7954
       2.6339700       1319.6182
       2.6348500       1408.1329
       2.6357300       1355.9868
       2.6366100       1401.2931
       2.6374800       1409.1655
       2.6383600       1375.3777
       2.6392400       1329.2580
       2.6401200       1214.4691
       2.6410100       1385.8448
       2.6418800       1387.6974
       2.6427600       1361.5969
       2.6436400       1373.8693
       2.6445200       1367.7692
       2.6454101       1373.4981
       2.6462901       1384.5381
       2.6471701       1354.4490
       2.6480501       1343.5522
       2.6489401       1403.9253
       2.6498201       1355.6687
       2.6507001       1386.7203
       2.6515901       1293.1741
       2.6524701       1351.7825
       2.6533501       1414.8683
       2.6542399       1306.7094
       2.6551199       1257.5674
       2.6560099       1328.3072
       2.6568899       1370.6377
       2.6577699       1348.4395
       2.6586599       1362.7220
       2.6595500       1340.8327
       2.6604400       1344.9984
       2.6613200       1346.0154
       2.6622100       1338.1909
       2.6631000       1347.6193
       2.6639900       1358.2522
       2.6648700       1263.3302
       2.6657600       1314.8270
       2.6666501       1341.8587
       2.6675401       1371.4881
       2.6684201       1391.3007
       2.6693201       1301.5058
       2.6702099       1357.3177
       2.6710999       1323.6533
       2.6719899       1382.0574
       2.6728799       1366.6285
       2.6737700       1364.7153
       2.6746600       1347.3735
       2.6755500       1283.8358
       2.6764400       1361.6892
       2.6773400       1366.9086
       2.6782300       1347.4592
       2.6791201       1373.6210
       2.6800201       1296.5438
       2.6809101       1388.8655
       2.6818099       1327.9898
       2.6826999       1344.5552
       2.6835899       1346.5078
       2.6844900       1379.9542
       2.6853800       1331.3398
       2.6862800       1387.9438
       2.6871700       1375.1749
       2.6880701       1276.5017
       2.6889601       1378.0273
       2.6898601       1368.9536
       2.6907599       1322.2192
       2.6916599       1352.0935
       2.6925499       1309.5667
       2.6934400       1348.3124
       2.6943400       1331.6437
       2.6952400       1326.5956
       2.6961401       1326.8569
       2.6970401       1302.5201
       2.6979401       1362.9188
       2.6988399       1348.9254
       2.6997399       1309.8234
       2.7006400       1335.1820
       2.7015400       1345.2382
       2.7024400       1315.4652
       2.7033401       1346.5651
       2.7042401       1352.9194
       2.7051401       1367.4203
       2.7060399       1279.0534
       2.7069399       1334.6860
       2.7078500       1292.8648
       2.7087600       1371.8950
       2.7096601       1349.7335
       2.7105601       1353.2429
       2.7114601       1310.0203
       2.7123699       1318.6445
       2.7132699       1339.4997
       2.7141700       1353.4403
       2.7150800       1339.2464
       2.7159801       1332.5967
       2.7168901       1310.6837
       2.7177899       1326.0740
       2.7186999       1345.2064
       2.7196100       1310.5478
       2.7205100       1331.2264
       2.7214200       1346.5450
       2.7223201       1310.3135
       2.7232399       1346.3754
       2.7241399       1340.7527
       2.7250500       1291.1349
       2.7259600       1354.7423
       2.7268701       1331.0492
       2.7277701       1311.4540
       2.7286899       1343.7390
       2.7295899       1309.4297
       2.7305000       1328.3709
       2.7314100       1300.5576
       2.7323201       1323.8494
       2.7332399       1307.3798
       2.7341499       1294.7211
       2.7350600       1340.3223
       2.7359700       1331.9562
       2.7368901       1307.3975
       2.7377999       1314.4293
       2.7387099       1297.5584
       2.7396200       1285.2593
       2.7405400       1322.7178
       2.7414501       1330.1711
       2.7423601       1349.6124
       2.7432699       1274.9054
       2.7441900       1300.1506
       2.7451000       1325.5001
       2.7460201       1333.4423
       2.7469399       1332.9429
       2.7478499       1298.6943
       2.7487600       1312.5538
       2.7496800       1293.3556
       2.7506001       1324.8265
       2.7515099       1315.8303
       2.7524300       1323.7784
       2.7533500       1338.1364
       2.7542701       1301.1878
       2.7551899       1288.7200
       2.7561100       1296.3055
       2.7570300       1296.3673
       2.7579401       1289.1456
       2.7588601       1298.1575
       2.7597799       1287.1036
       2.7607000       1326.3663
       2.7616200       1316.2761
       2.7625401       1282.9681
       2.7634599       1314.2069
       2.7643800       1328.3163
       2.7653100       1303.8043
       2.7662301       1295.5961
       2.7671499       1291.5005
       2.7680700       1306.5351
       2.7689900       1296.3429
       2.7699201       1309.8412
       2.7708399       1287.1999
       2.7717700       1290.0498
       2.7726901       1280.4558
       2.7736101       1293.4844
       2.7745299       1302.9125
       2.7754600       1269.8679
       2.7763801       1296.7486
       2.7773099       1279.0842
       2.7782400       1308.5550
       2.7791700       1306.3369
       2.7800901       1308.9070
       2.7810199       1296.0918
       2.7819400       1261.8784
       2.7828701       1258.0083
       2.7837999       1304.4453
       2.7847300       1305.3271
       2.7856600       1306.6639
       2.7865801       1289.4596
       2.7875099       1273.5930
       2.7884400       1290.1855
       2.7893701       1289.9869
       2.7902999       1297.1114
       2.7912300       1273.4001
       2.7921600       1294.2192
       2.7930901       1267.5083
       2.7940199       1278.8846
       2.7949600       1292.0281
       2.7958901       1299.5308
       2.7968199       1284.3992
       2.7977500       1294.6830
       2.7986801       1274.1065
       2.7996099       1300.0792
       2.8005500       1278.1341
       2.8014801       1274.9188
       2.8024099       1250.5293
       2.8033500       1291.6745
       2.8042901       1268.2568
       2.8052199       1283.7451
       2.8061500       1286.2385
       2.8070900       1266.7846
       2.8080201       1268.7491
       2.8089600       1298.3468
       2.8099000       1278.8499
       2.8108399       1271.8718
       2.8117700       1254.1263
       2.8127100       1285.6977
       2.8136499       1265.2203
       2.8145900       1273.5086
       2.8155200       1270.7629
       2.8164599       1265.1734
       2.8174000       1284.2670
       2.8183401       1269.8868
       2.8192699       1262.0540
       2.8202200       1267.1664
       2.8211601       1271.9296
       2.8220999       1260.0629
       2.8230400       1270.8835
       2.8239801       1277.7702
       2.8249199       1269.3282
       2.8258600       1259.6556
       2.8268099       1253.5207
       2.8277500       1273.3462
       2.8286901       1260.6887
       2.8296299       1270.1078
       2.8305700       1260.1920
       2.8315201       1280.8788
       2.8324599       1254.7246
       2.8334100       1261.8252
       2.8343501       1263.7093
       2.8352900       1280.9910
       2.8362401       1256.4470
       2.8371899       1271.5330
       2.8381300       1254.0831
       2.8390801       1278.9158
       2.8400199       1253.9583
       2.8409700       1234.2649
       2.8419199       1262.3295
       2.8428700       1261.5086
       2.8438201       1255.4121
       2.8447599       1245.9055
       2.8457100       1272.8774
       2.8466599       1250.5041
       2.8476100       1251.5016
       2.8485601       1274.8908
       2.8495100       1256.2432
       2.8504601       1240.9179
       2.8514099       1250.8690
       2.8523600       1255.5614
       2.8533101       1247.7648
       2.8542600       1213.6325
       2.8552101       1236.8462
       2.8561599       1246.3115
       2.8571200       1257.6150
       2.8580699       1259.3446
       2.8590200       1254.9017
       2.8599701       1224.7369
       2.8609200       1256.9660
       2.8618801       1240.9209
       2.8628299       1227.2414
       2.8637900       1255.9513
       2.8647399       1258.2617
       2.8656900       1243.8251
       2.8666501       1235.6022
       2.8676100       1249.8130
       2.8685601       1236.0781
       2.8695199       1230.2116
       2.8704700       1210.0811
       2.8714299       1230.5566
       2.8723900       1217.6557
       2.8733499       1207.7777
       2.8743100       1237.6426
       2.8752601       1224.3701
       2.8762200       1245.7748
       2.8771801       1245.4019
       2.8781400       1243.6171
       2.8791001       1232.0617
       2.8800600       1237.7220
       2.8810201       1242.2864
       2.8819699       1231.3422
       2.8829401       1241.9278
       2.8838999       1239.7810
       2.8848600       1222.9162
       2.8858199       1217.4620
       2.8867900       1231.8306
       2.8877499       1198.6703
       2.8887100       1222.3450
       2.8896699       1243.5772
       2.8906400       1222.6136
       2.8915999       1238.4314
       2.8925600       1230.0886
       2.8935201       1238.2475
       2.8944900       1221.7058
       2.8954599       1231.9601
       2.8964300       1217.2254
       2.8973899       1228.5384
       2.8983600       1217.6117
       2.8993199       1232.6073
       2.9002900       1233.4716
       2.9012499       1177.8123
       2.9022200       1221.5566
       2.9031899       1214.5378
       2.9041600       1215.8745
       2.9051199       1215.1565
       2.9060900       1209.4136
       2.9070599       1232.3358
       2.9080300       1211.3220
       2.9089999       1223.0510
       2.9099700       1210.4417
       2.9109399       1222.2603
       2.9119101       1222.0449
       2.9128799       1219.3779
       2.9138501       1209.2241
       2.9148200       1210.3459
       2.9157901       1219.6706
       2.9167700       1217.4274
       2.9177401       1217.8154
       2.9187100       1217.9308
       2.9196801       1216.5643
       2.9206600       1209.0380
       2.9216299       1215.0587
       2.9226100       1166.1782
       2.9235799       1187.2482
       2.9245601       1214.5892
       2.9255300       1209.7146
       2.9265101       1184.9973
       2.9274800       1215.8053
       2.9284599       1178.6616
       2.9294300       1206.5379
       2.9304099       1207.3475
       2.9313800       1208.3741
       2.9323599       1209.0868
       2.9333401       1197.6737
       2.9343200       1167.3093
       2.9352901       1196.7103
       2.9362700       1195.5246
       2.9372499       1203.0309
       2.9382300       1174.1077
       2.9392099       1199.0381
       2.9401901       1197.7326
       2.9411700       1196.2435
       2.9421501       1206.5932
       2.9431300       1179.0198
       2.9441099       1199.1739
       2.9450901       1178.2064
       2.9460700       1181.9439
       2.9470601       1172.7715
       2.9480400       1198.3405
       2.9490199       1195.7270
       2.9500101       1184.2973
       2.9509900       1189.3092
       2.9519701       1197.1113
       2.9529600       1195.8165
       2.9539399       1187.5145
       2.9549201       1184.1446
       2.9559100       1187.4774
       2.9568999       1181.6150
       2.9578800       1185.7386
       2.9588599       1191.8110
       2.9598501       1171.4027
       2.9608400       1167.4756
       2.9618199       1186.2446
       2.9628100       1187.2049
       2.9638000       1182.6260
       2.9647901       1172.2282
       2.9657800       1186.3954
       2.9667599       1188.4710
       2.9677501       1185.8928
       2.9687400       1178.5807
       2.9697399       1154.9066
       2.9707201       1161.9742
       2.9717100       1178.9603
       2.9727099       1172.0369
       2.9737000       1186.1809
       2.9746900       1183.0022
       2.9756701       1175.7201
       2.9766700       1175.3591
       2.9776599       1182.2295
       2.9786601       1170.2986
       2.9796500       1163.7199
       2.9806399       1178.2110
       2.9816401       1175.5438
       2.9826300       1176.8734
       2.9836199       1174.5503
       2.9846201       1178.4369
       2.9856100       1176.8686
       2.9866099       1171.3266
       2.9876101       1162.7237
       2.9886000       1163.8760
       2.9895899       1152.0805
       2.9905901       1173.3506
       2.9915900       1162.6243
       2.9925799       1171.4723
       2.9935801       1163.5639
       2.9945800       1169.9334
       2.9955800       1165.0961
       2.9965799       1148.4024
       2.9975801       1168.2455
       2.9985800       1162.1985
       2.9995799       1141.0894
       3.0005801       1122.8517
       3.0015700       1162.1984
       3.0025799       1164.3666
       3.0035801       1158.5011
       3.0045800       1156.5675
       3.0055799       1161.5637
       3.0065801       1151.6564
       3.0075800       1135.3450
       3.0085800       1135.8294
       3.0095799       1154.0587
       3.0105901       1151.7085
       3.0116000       1160.7514
       3.0125999       1157.3702
       3.0136001       1155.5879
       3.0146101       1149.4529
       3.0156100       1154.0730
       3.0166199       1147.9017
       3.0176201       1153.3410
       3.0186300       1154.5586
       3.0196300       1145.5386
       3.0206399       1132.1925
       3.0216401       1153.0082
       3.0226600       1148.3103
       3.0236700       1141.5317
       3.0246699       1139.3778
       3.0256801       1151.3906
       3.0266800       1130.2032
       3.0276999       1137.1456
       3.0287099       1145.8512
       3.0297101       1148.9061
       3.0307300       1144.4760
       3.0317400       1140.4696
       3.0327401       1124.2373
       3.0337601       1141.8572
       3.0347700       1141.4103
       3.0357800       1139.0627
       3.0367899       1136.7918
       3.0378101       1130.1213
       3.0388200       1112.2940
       3.0398300       1101.4181
       3.0408399       1133.2711
       3.0418601       1089.3539
       3.0428700       1129.6910
       3.0438800       1129.4982
       3.0448999       1125.0560
       3.0459099       1134.7456
       3.0469301       1135.5547
       3.0479500       1109.7610
       3.0489700       1110.1282
       3.0499799       1131.3048
       3.0509901       1134.4949
       3.0520101       1130.7340
       3.0530300       1128.8672
       3.0540500       1127.1893
       3.0550599       1110.0797
       3.0560801       1132.9400
       3.0571001       1127.2693
       3.0581200       1116.8716
       3.0591400       1127.6732
       3.0601599       1128.8263
       3.0611801       1128.1475
       3.0622001       1128.5490
       3.0632200       1126.8360
       3.0642400       1095.1088
       3.0652599       1109.2705
       3.0662899       1125.1555
       3.0673101       1124.5899
       3.0683300       1107.0096
       3.0693500       1123.2480
       3.0703700       1115.6875
       3.0713999       1119.8873
       3.0724299       1119.2766
       3.0734501       1117.6125
       3.0744700       1113.9297
       3.0755000       1122.0734
       3.0765200       1116.4859
       3.0775499       1118.9045
       3.0785799       1097.6066
       3.0796001       1116.5835
       3.0806201       1099.9374
       3.0816500       1105.1827
       3.0826800       1110.9595
       3.0837100       1098.1293
       3.0847299       1093.0906
       3.0857601       1089.6195
       3.0867901       1091.1136
       3.0878201       1112.9189
       3.0888500       1109.3014
       3.0898800       1108.0951
       3.0909100       1063.3551
       3.0919399       1105.6023
       3.0929699       1109.7587
       3.0940001       1104.0640
       3.0950301       1107.4382
       3.0960600       1097.3665
       3.0971000       1106.7374
       3.0981300       1082.7404
       3.0991600       1104.1984
       3.1001999       1103.6512
       3.1012299       1105.4807
       3.1022601       1101.2065
       3.1032901       1105.0867
       3.1043200       1097.7536
       3.1053600       1086.3177
       3.1064000       1093.2086
       3.1074300       1096.0423
       3.1084700       1100.7057
       3.1095099       1098.1215
       3.1105499       1099.4837
       3.1115799       1098.1415
       3.1126201       1095.9121
       3.1136501       1089.1669
       3.1146901       1060.6650
       3.1157300       1040.4029
       3.1167700       1068.0803
       3.1178100       1090.6935
       3.1188400       1089.6449
       3.1198900       1091.0430
       3.1209300       1089.6800
       3.1219599       1091.7779
       3.1230099       1087.6292
       3.1240499       1089.3511
       3.1250899       1085.4302
       3.1261301       1086.8561
       3.1271801       1080.2345
       3.1282201       1081.4781
       3.1292601       1086.3926
       3.1303000       1060.8264
       3.1313500       1062.8500
       3.1323900       1082.4441
       3.1334300       1082.9365
       3.1344800       1079.4972
       3.1355200       1055.3082
       3.1365700       1060.6930
       3.1376200       1079.0785
       3.1386600       1080.3825
       3.1396999       1074.0161
       3.1407499       1069.5147
       3.1417999       1076.7436
       3.1428499       1069.5257
       3.1438999       1078.2333
       3.1449399       1075.5416
       3.1459899       1073.3660
       3.1470399       1072.4892
       3.1480899       1053.8429
       3.1491399       1077.0779
       3.1501901       1075.8097
       3.1512401       1047.3721
       3.1522901       1062.4522
       3.1533401       1073.2269
       3.1543901       1073.5831
       3.1554401       1069.2376
       3.1564901       1058.8146
       3.1575501       1053.7602
       3.1586001       1069.4050
       3.1596501       1060.9903
       3.1607001       1067.4080
       3.1617601       1066.6645
       3.1628201       1054.7521
       3.1638701       1067.3822
       3.1649201       1058.5586
       3.1659701       1063.8702
       3.1670301       1062.2493
       3.1680901       1046.2161
       3.1691501       1062.1660
       3.1702001       1042.3928
       3.1712501       1057.8434
       3.1723101       1055.7657
       3.1733699       1057.5747
       3.1744299       1059.4077
       3.1754799       1060.5216
       3.1765499       1049.7676
       3.1776099       1058.1247
       3.1786599       1009.8708
       3.1797199       1050.7441
       3.1807799       1033.4963
       3.1818399       1047.0098
       3.1829100       1024.9515
       3.1839700       1033.1484
       3.1850200       1057.3387
       3.1860900       1055.5750
       3.1871600       1053.1207
       3.1882100       1047.5232
       3.1892700       1051.9698
       3.1903300       1052.0602
       3.1914001       1052.2948
       3.1924601       1023.2898
       3.1935301       1051.7935
       3.1945901       1050.8550
       3.1956601       1045.2729
       3.1967199       1048.3117
       3.1977899       1048.8042
       3.1988499       1044.1071
       3.1999199       1017.5062
       3.2009799       1026.8596
       3.2020600       1046.0975
       3.2031300       1041.2761
       3.2041900       1040.7789
       3.2052600       1034.3499
       3.2063200       1036.2205
       3.2074001       1040.8412
       3.2084701       1044.0032
       3.2095301       1040.9597
       3.2106099       1034.8548
       3.2116799       1036.9642
       3.2127399       1040.5524
       3.2138200       1040.6906
       3.2148900       1021.9320
       3.2159600       1036.7872
       3.2170300       1035.5982
       3.2181101       1036.3043
       3.2191801       1033.8281
       3.2202499       1036.2116
       3.2213199       1028.6533
       3.2224000       1034.7209
       3.2234700       1021.8480
       3.2245400       1031.7435
       3.2256200       1033.6631
       3.2266901       1026.4496
       3.2277701       1026.9826
       3.2288499       1006.6031
       3.2299299       1008.0764
       3.2309999       1024.2992
       3.2320700       1006.5865
       3.2331500       1005.5170
       3.2342300       1011.2181
       3.2353101       1028.9568
       3.2363901       1020.8970
       3.2374699       1027.4726
       3.2385499       1001.3441
       3.2396300       1021.2723
       3.2407100       1021.7364
       3.2417901       1016.2426
       3.2428701       1000.1267
       3.2439499       1023.4840
       3.2450299       1008.3852
       3.2461100       1008.2838
       3.2471900       1021.6675
       3.2482700       1018.1183
       3.2493501       1020.6274
       3.2504399       1017.8808
       3.2515299       1009.5284
       3.2526100       1018.6183
       3.2536900       1016.3827
       3.2547700       1016.0699
       3.2558601       1011.6552
       3.2569499       1016.9681
       3.2580400       1014.1415
       3.2591200       1016.0817
       3.2602000       1015.4853
       3.2612901       1015.3613
       3.2623799       1013.7409
       3.2634699       1010.5742
       3.2645500       1003.0629
       3.2656400       1012.0573
       3.2667301       1008.3249
       3.2678199       1011.1726
       3.2688999       1008.1156
       3.2700000       1010.1316
       3.2710900       1004.0546
       3.2721701       1007.1143
       3.2732699       1008.0500
       3.2743599       1008.4002
       3.2754500       1006.2753
       3.2765400       996.69538
       3.2776301       1006.1479
       3.2787299       1004.7006
       3.2798200       997.56261
       3.2809200       981.41414
       3.2820101       978.97362
       3.2831099       1000.2470
       3.2842000       974.89608
       3.2852800       1002.1271
       3.2863901       981.48771
       3.2874899       973.99772
       3.2885799       1000.3087
       3.2896800       999.80343
       3.2907701       996.10564
       3.2918701       985.18683
       3.2929599       981.20750
       3.2940600       978.89095
       3.2951601       992.03082
       3.2962601       978.46403
       3.2973599       969.80556
       3.2984500       985.82626
       3.2995601       990.01034
       3.3006599       989.64240
       3.3017499       991.44210
       3.3028600       992.97434
       3.3039601       992.72552
       3.3050599       980.75172
       3.3061600       991.07947
       3.3072600       988.86359
       3.3083601       988.83302
       3.3094699       980.51489
       3.3105800       987.88186
       3.3116801       985.84470
       3.3127799       987.48285
       3.3138800       986.18870
       3.3149900       982.87053
       3.3160901       975.76988
       3.3171999       978.20112
       3.3183100       972.07840
       3.3194101       961.06530
       3.3205099       897.13233
       3.3216200       981.68399
       3.3227301       982.67962
       3.3238399       978.48569
       3.3249500       969.42827
       3.3260500       962.98916
       3.3271599       979.55230
       3.3282700       977.29612
       3.3293800       964.67139
       3.3304901       978.31801
       3.3316000       976.98370
       3.3327100       976.88745
       3.3338201       976.27454
       3.3349299       971.95393
       3.3360500       973.75337
       3.3371601       956.64736
       3.3382699       942.57205
       3.3393800       940.11479
       3.3404901       955.64555
       3.3416100       952.44655
       3.3427300       958.69728
       3.3438399       950.27488
       3.3449500       970.95085
       3.3460701       967.72773
       3.3471799       970.60831
       3.3483000       969.94727
       3.3494201       965.94508
       3.3505299       967.54250
       3.3516400       964.74111
       3.3527601       966.15728
       3.3538799       954.64336
       3.3550000       963.98623
       3.3561201       960.72604
       3.3572400       952.18933
       3.3583601       964.23879
       3.3594699       965.05852
       3.3606000       961.85567
       3.3617201       963.68360
       3.3628299       962.80165
       3.3639600       962.46984
       3.3650801       953.64117
       3.3662000       936.73681
       3.3673201       960.15910
       3.3684399       957.79582
       3.3695700       954.91208
       3.3706901       934.29857
       3.3718200       957.31560
       3.3729401       948.81577
       3.3740699       951.49267
       3.3751900       955.64442
       3.3763199       947.49307
       3.3774400       944.33708
       3.3785701       947.27292
       3.3796899       950.66492
       3.3808200       952.30705
       3.3819399       944.34763
       3.3830700       941.23609
       3.3841901       950.08794
       3.3853300       945.73190
       3.3864601       951.62877
       3.3875799       950.84263
       3.3887100       946.81353
       3.3898399       946.75158
       3.3909700       934.50735
       3.3921001       926.14653
       3.3932300       933.32871
       3.3943601       930.28406
       3.3954999       936.81538
       3.3966300       874.15781
       3.3977599       907.98136
       3.3988900       900.82198
       3.4000299       941.93047
       3.4011600       909.60903
       3.4022901       941.87521
       3.4034200       941.24620
       3.4045601       941.61312
       3.4057000       941.58609
       3.4068301       919.67937
       3.4079599       931.13544
       3.4091001       920.54932
       3.4102399       932.33682
       3.4113801       937.56742
       3.4125099       937.56565
       3.4136500       915.92923
       3.4147899       912.54676
       3.4159300       917.69350
       3.4170699       927.92993
       3.4182100       932.65498
       3.4193499       929.95471
       3.4204900       930.09605
       3.4216299       930.82914
       3.4227700       926.23084
       3.4239099       924.78771
       3.4250500       927.77388
       3.4261899       931.24375
       3.4273300       917.71175
       3.4284699       925.92536
       3.4296200       931.31543
       3.4307599       924.99870
       3.4319000       929.50543
       3.4330399       928.54745
       3.4341900       923.35733
       3.4353399       923.94700
       3.4364800       926.09424
       3.4376199       923.73708
       3.4387701       920.10579
       3.4399199       915.11094
       3.4410701       921.80987
       3.4422100       914.99644
       3.4433601       924.95759
       3.4445100       921.03712
       3.4456601       921.46335
       3.4468100       917.49740
       3.4479499       909.10531
       3.4491000       907.95433
       3.4502499       919.16663
       3.4514000       920.93374
       3.4525499       904.41108
       3.4537001       905.96795
       3.4548600       916.67249
       3.4560101       896.10476
       3.4571500       901.30069
       3.4583099       889.98248
       3.4594600       911.30320
       3.4606199       899.39476
       3.4617701       916.03103
       3.4629300       911.09454
       3.4640801       910.36442
       3.4652400       901.82417
       3.4663899       912.53047
       3.4675500       910.35684
       3.4686999       911.91901
       3.4698601       908.00265
       3.4710100       910.93343
       3.4721701       908.46980
       3.4733300       895.31363
       3.4744799       903.90692
       3.4756401       907.62183
       3.4768000       906.05580
       3.4779601       904.58008
       3.4791200       907.41569
       3.4802799       907.75218
       3.4814401       906.45108
       3.4826000       904.94265
       3.4837601       904.43287
       3.4849200       900.12956
       3.4860799       897.04752
       3.4872401       901.10156
       3.4884100       896.30350
       3.4895699       894.73829
       3.4907300       902.80697
       3.4919000       891.66611
       3.4930601       890.79288
       3.4942300       885.54674
       3.4953899       892.13022
       3.4965501       898.95281
       3.4977200       897.79501
       3.4988899       895.15700
       3.5000401       895.40798
       3.5012200       881.10582
       3.5023899       894.66200
       3.5035501       895.99241
       3.5047200       890.92720
       3.5058999       894.77511
       3.5070601       894.14073
       3.5082200       883.07180
       3.5093999       868.95253
       3.5105700       877.23644
       3.5117400       887.91899
       3.5129099       861.13773
       3.5140901       884.67774
       3.5152500       874.90871
       3.5164101       885.07012
       3.5175900       881.13209
       3.5187600       875.99066
       3.5199299       867.24845
       3.5211101       873.27308
       3.5222900       872.59292
       3.5234699       875.07828
       3.5246401       871.85616
       3.5258100       885.16889
       3.5269799       877.75468
       3.5281601       881.95922
       3.5293400       874.86027
       3.5305200       878.73559
       3.5316899       879.54793
       3.5328600       877.17341
       3.5340500       876.89717
       3.5352299       878.89467
       3.5364001       870.64335
       3.5375800       867.71238
       3.5387599       858.11721
       3.5399401       868.54967
       3.5411201       861.85201
       3.5423000       876.07996
       3.5434799       862.30299
       3.5446601       868.33564
       3.5458400       873.57761
       3.5470200       875.90926
       3.5481999       868.22039
       3.5493901       869.66270
       3.5505800       875.87117
       3.5517600       875.45398
       3.5529499       870.36428
       3.5541301       873.44966
       3.5553100       862.26655
       3.5565000       871.50837
       3.5576799       873.06025
       3.5588601       872.23679
       3.5600500       854.93248
       3.5612400       871.56692
       3.5624299       871.00131
       3.5636201       870.61462
       3.5648000       870.36649
       3.5659800       867.40014
       3.5671699       865.94192
       3.5683601       869.00495
       3.5695500       855.66248
       3.5707400       842.20512
       3.5719299       849.15086
       3.5731201       845.84923
       3.5743101       853.67451
       3.5755000       855.33780
       3.5767000       855.58934
       3.5778999       858.85769
       3.5790901       852.05323
       3.5802801       848.21024
       3.5814700       859.81548
       3.5826700       862.79212
       3.5838699       856.02940
       3.5850599       850.88734
       3.5862501       860.13914
       3.5874500       845.81437
       3.5886500       845.90424
       3.5898399       842.89956
       3.5910299       857.00507
       3.5922301       840.24571
       3.5934300       857.76102
       3.5946300       856.97886
       3.5958300       853.65563
       3.5970299       842.57199
       3.5982299       854.29683
       3.5994301       853.72756
       3.6006200       851.62757
       3.6018200       852.15187
       3.6030200       847.15393
       3.6042299       853.42916
       3.6054299       849.42160
       3.6066301       851.65327
       3.6078300       851.93115
       3.6090300       849.30805
       3.6102300       850.07177
       3.6114399       850.06735
       3.6126499       847.56260
       3.6138501       847.13732
       3.6150401       845.40987
       3.6162500       847.43667
       3.6174600       846.78069
       3.6186700       846.36621
       3.6198699       846.59028
       3.6210799       845.03032
       3.6222899       842.98849
       3.6235001       844.05686
       3.6247001       838.94663
       3.6259100       838.60206
       3.6271200       843.42987
       3.6283300       840.34132
       3.6295300       837.03092
       3.6307399       827.97426
       3.6319599       832.41538
       3.6331699       834.56678
       3.6343801       840.71936
       3.6355901       821.34853
       3.6368101       820.66059
       3.6380200       827.60841
       3.6392300       838.96236
       3.6404400       825.74259
       3.6416500       836.14594
       3.6428699       836.42609
       3.6440899       823.34640
       3.6452999       827.92033
       3.6465099       832.73342
       3.6477301       821.15540
       3.6489401       833.09649
       3.6501601       832.35146
       3.6513700       831.14377
       3.6525900       825.17730
       3.6538200       793.24552
       3.6550300       826.26513
       3.6562500       823.14747
       3.6574600       827.90164
       3.6586800       807.19181
       3.6599100       803.20755
       3.6611300       823.67203
       3.6623499       810.72565
       3.6635599       823.74661
       3.6647899       828.21096
       3.6660099       827.59667
       3.6672399       815.85110
       3.6684501       825.82974
       3.6696701       820.73998
       3.6709001       810.07005
       3.6721201       822.12393
       3.6733501       824.99693
       3.6745701       823.93487
       3.6758001       823.84077
       3.6770201       805.51956
       3.6782501       804.36434
       3.6794701       794.78060
       3.6807001       819.96697
       3.6819201       790.26870
       3.6831501       795.41795
       3.6843901       817.21870
       3.6856101       818.75353
       3.6868401       819.78484
       3.6880600       818.53413
       3.6893001       811.32877
       3.6905301       813.65404
       3.6917601       815.53287
       3.6929901       810.14533
       3.6942201       810.11653
       3.6954501       804.80699
       3.6966801       810.25951
       3.6979201       806.98088
       3.6991501       790.09509
       3.7003801       808.90284
       3.7016201       811.95198
       3.7028501       807.33157
       3.7040801       804.77497
       3.7053199       808.41194
       3.7065499       791.76279
       3.7077899       802.55928
       3.7090199       783.38959
       3.7102599       808.89836
       3.7114999       809.47798
       3.7127299       805.11607
       3.7139699       807.73702
       3.7152100       808.72582
       3.7164500       807.86010
       3.7176800       806.91336
       3.7189200       807.23198
       3.7201700       804.47133
       3.7214100       804.93683
       3.7226501       798.46557
       3.7238901       804.78602
       3.7251301       802.76529
       3.7263601       797.56317
       3.7276001       798.47467
       3.7288499       801.20178
       3.7300899       797.76709
       3.7313399       797.45164
       3.7325900       787.63132
       3.7338300       793.30703
       3.7350800       772.77353
       3.7363200       796.04419
       3.7375600       785.45460
       3.7388000       795.58765
       3.7400601       780.41333
       3.7413099       784.87225
       3.7425499       794.75446
       3.7437899       794.06936
       3.7450399       773.37198
       3.7462900       791.60554
       3.7475400       795.76341
       3.7487900       792.39408
       3.7500401       794.54043
       3.7512901       790.64977
       3.7525401       781.77935
       3.7537899       761.36679
       3.7550399       792.48110
       3.7563000       790.39159
       3.7575500       789.69425
       3.7588000       792.83401
       3.7600501       789.12232
       3.7613001       787.77190
       3.7625599       785.33176
       3.7638099       785.49318
       3.7650599       789.99252
       3.7663200       782.75906
       3.7675800       775.56153
       3.7688301       784.32016
       3.7700901       785.71896
       3.7713499       786.72487
       3.7726099       786.03517
       3.7738700       782.05925
       3.7751300       785.70797
       3.7763901       775.77928
       3.7776501       783.90644
       3.7788999       766.22106
       3.7801499       782.10055
       3.7814100       772.62259
       3.7826800       774.92317
       3.7839501       779.02843
       3.7852099       781.26957
       3.7864699       779.36479
       3.7877300       781.22631
       3.7889900       780.41655
       3.7902501       776.24365
       3.7915101       780.63930
       3.7927699       779.18562
       3.7940400       777.54462
       3.7953000       776.02085
       3.7965701       777.36211
       3.7978401       777.34462
       3.7990999       775.79318
       3.8003700       775.72566
       3.8016400       772.54207
       3.8029001       775.07998
       3.8041699       775.84395
       3.8054399       773.06417
       3.8067000       774.71350
       3.8079700       770.61449
       3.8092401       772.76987
       3.8105099       762.46750
       3.8117800       772.81547
       3.8130600       752.66935
       3.8143301       771.80292
       3.8155899       755.23081
       3.8168700       753.33184
       3.8181400       742.61682
       3.8194101       752.67106
       3.8206899       752.34493
       3.8219600       761.27755
       3.8232300       765.38483
       3.8245001       767.79681
       3.8257799       767.68067
       3.8270600       767.79201
       3.8283300       767.35922
       3.8296101       766.45586
       3.8308899       761.44460
       3.8321700       762.49813
       3.8334401       760.88928
       3.8347199       750.46054
       3.8360000       750.65455
       3.8372800       764.16836
       3.8385501       757.00424
       3.8398299       758.38005
       3.8411100       759.80777
       3.8424001       759.45689
       3.8436799       760.39656
       3.8449600       759.02889
       3.8462400       761.01906
       3.8475201       758.58404
       3.8488100       758.29239
       3.8500900       753.09476
       3.8513701       759.37580
       3.8526599       747.99476
       3.8539400       755.74823
       3.8552201       742.92305
       3.8565099       756.82432
       3.8578000       746.99175
       3.8590801       748.73537
       3.8603699       753.53450
       3.8616500       756.10423
       3.8629401       736.78051
       3.8642299       753.71310
       3.8655100       751.12265
       3.8668101       744.24714
       3.8680899       746.94956
       3.8693800       752.03541
       3.8706801       749.51241
       3.8719599       733.77331
       3.8732500       743.37347
       3.8745401       748.12473
       3.8758399       749.71305
       3.8771300       747.80719
       3.8784201       747.23521
       3.8797100       745.28463
       3.8810000       746.21060
       3.8822999       743.92499
       3.8835900       743.79231
       3.8848901       722.32015
       3.8861799       734.55086
       3.8874800       745.82858
       3.8887701       743.11315
       3.8900700       742.99638
       3.8913600       743.03585
       3.8926599       735.22894
       3.8939700       738.81129
       3.8952601       725.22782
       3.8965600       734.81327
       3.8978500       723.72343
       3.8991599       740.43675
       3.9004600       738.75470
       3.9017601       738.60029
       3.9030600       737.10790
       3.9043601       736.01786
       3.9056599       738.93160
       3.9069600       737.89834
       3.9082699       731.24854
       3.9095700       730.96289
       3.9108701       728.00388
       3.9121799       735.34635
       3.9134800       733.37367
       3.9147799       737.01500
       3.9160900       736.17411
       3.9173901       732.10592
       3.9187000       736.47358
       3.9200001       726.22136
       3.9213099       735.19055
       3.9226201       733.81310
       3.9239199       733.33129
       3.9252300       731.91923
       3.9265399       731.04152
       3.9278600       731.28839
       3.9291601       730.92822
       3.9304600       730.25658
       3.9317801       729.92673
       3.9330900       720.49790
       3.9344001       723.71042
       3.9357100       718.17921
       3.9370301       730.44491
       3.9383399       720.31823
       3.9396501       728.51347
       3.9409599       728.12185
       3.9422801       727.31651
       3.9435899       723.84532
       3.9449000       726.56460
       3.9462099       722.54782
       3.9475400       725.56228
       3.9488599       724.45835
       3.9501700       715.94280
       3.9514799       714.96448
       3.9528000       721.49795
       3.9541199       713.13946
       3.9554400       719.48081
       3.9567599       712.89499
       3.9580801       709.88779
       3.9593899       713.57370
       3.9607100       719.93508
       3.9620299       718.60063
       3.9633601       721.23794
       3.9646800       718.25392
       3.9660001       715.99117
       3.9673200       720.53232
       3.9686401       719.67147
       3.9699600       718.60392
       3.9712801       719.48207
       3.9726100       718.92127
       3.9739299       716.43205
       3.9752600       716.87337
       3.9765899       714.91490
       3.9779201       711.98121
       3.9792399       709.47621
       3.9805601       713.13687
       3.9818900       704.36655
       3.9832201       711.75784
       3.9845500       706.70615
       3.9858799       691.05692
       3.9872100       709.87560
       3.9885399       704.36642
       3.9898701       711.26176
       3.9912000       693.94065
       3.9925301       711.02929
       3.9938600       711.30168
       3.9951899       699.31487
       3.9965200       709.72220
       3.9978499       708.18408
       3.9991801       696.56956
       4.0005002       705.77962
       4.0018501       705.17290
       4.0031800       704.32702
       4.0045199       708.43291
       4.0058498       707.06537
       4.0071802       706.85362
       4.0085201       706.51536
       4.0098600       706.38609
       4.0112000       703.22523
       4.0125299       700.59272
       4.0138602       705.62761
       4.0152001       694.59474
       4.0165401       696.88735
       4.0178800       687.48278
       4.0192199       701.86685
       4.0205598       691.21265
       4.0219002       700.47475
       4.0232401       694.20748
       4.0245800       700.11635
       4.0259199       697.05983
       4.0272598       701.10073
       4.0286102       700.21753
       4.0299602       698.50656
       4.0313001       698.25767
       4.0326400       692.57653
       4.0339799       697.58407
       4.0353298       698.74004
       4.0366802       697.99091
       4.0380201       697.97865
       4.0393600       696.49132
       4.0407100       695.86679
       4.0420599       696.30179
       4.0434098       695.02539
       4.0447602       676.92767
       4.0461001       693.81807
       4.0474501       694.13523
       4.0488000       691.96368
       4.0501499       693.01639
       4.0514998       679.90671
       4.0528498       670.94086
       4.0542002       679.64954
       4.0555501       689.93088
       4.0569100       689.71300
       4.0582600       689.62667
       4.0596099       689.39262
       4.0609698       690.81447
       4.0623202       689.63141
       4.0636702       689.42199
       4.0650301       661.28759
       4.0663800       678.57649
       4.0677299       686.70889
       4.0690899       679.50258
       4.0704498       650.30929
       4.0718098       643.65223
       4.0731702       646.61213
       4.0745201       658.53749
       4.0758700       658.41642
       4.0772300       672.46357
       4.0785899       680.37373
       4.0799499       684.03382
       4.0813098       679.48301
       4.0826702       681.56696
       4.0840302       682.89982
       4.0853901       682.36744
       4.0867600       681.71449
       4.0881300       668.33141
       4.0894899       681.32148
       4.0908499       681.51385
       4.0922098       681.49478
       4.0935702       674.99800
       4.0949402       679.43084
       4.0963101       680.07905
       4.0976701       677.30110
       4.0990400       676.47625
       4.1004100       674.31802
       4.1017699       676.59378
       4.1031399       676.51420
       4.1045098       677.91344
       4.1058698       676.49096
       4.1072402       671.72903
       4.1086102       671.86544
       4.1099801       671.03572
       4.1113501       654.98154
       4.1127200       669.23059
       4.1140900       668.01772
       4.1154599       672.91664
       4.1168399       669.99248
       4.1182098       672.49401
       4.1195798       673.18820
       4.1209602       669.87059
       4.1223302       672.94847
       4.1237001       672.11824
       4.1250801       671.41957
       4.1264501       671.53186
       4.1278200       667.73719
       4.1292000       670.78083
       4.1305799       669.81887
       4.1319599       669.20375
       4.1333399       661.74641
       4.1347098       667.76321
       4.1360798       667.04054
       4.1374602       658.91105
       4.1388402       667.07483
       4.1402202       660.04144
       4.1416001       666.14533
       4.1429801       660.31799
       4.1443601       660.81507
       4.1457500       665.59406
       4.1471400       664.19621
       4.1485200       658.27654
       4.1499000       656.89151
       4.1512799       650.63541
       4.1526599       662.72554
       4.1540399       663.32096
       4.1554298       660.75817
       4.1568198       662.05485
       4.1581998       655.09579
       4.1595898       660.52779
       4.1609802       658.30401
       4.1623602       660.97574
       4.1637502       656.99192
       4.1651402       658.83810
       4.1665301       650.50191
       4.1679201       650.13928
       4.1693001       652.30836
       4.1706901       651.42932
       4.1720800       644.29722
       4.1734700       650.34307
       4.1748700       654.05280
       4.1762600       648.08475
       4.1776500       649.08132
       4.1790400       649.31846
       4.1804299       649.38433
       4.1818299       645.81190
       4.1832299       651.81437
       4.1846199       637.15394
       4.1860099       650.49786
       4.1874099       654.02489
       4.1888099       652.69259
       4.1901999       646.72637
       4.1915898       635.38405
       4.1929898       651.29859
       4.1943898       649.57398
       4.1957898       650.06235
       4.1971898       649.62931
       4.1985898       647.37926
       4.1999898       649.70187
       4.2013898       619.70968
       4.2027898       643.53615
       4.2041898       639.81171
       4.2055898       627.13519
       4.2069898       642.87291
       4.2083902       633.48210
       4.2097902       644.90053
       4.2112002       644.65353
       4.2126098       643.50350
       4.2140098       644.93981
       4.2154102       646.05063
       4.2168198       643.35629
       4.2182298       643.63960
       4.2196298       641.76992
       4.2210302       643.98227
       4.2224398       641.03841
       4.2238498       642.53251
       4.2252598       641.57648
       4.2266698       642.61202
       4.2280798       642.10350
       4.2294898       638.99658
       4.2308898       639.90549
       4.2322998       639.96530
       4.2337198       641.22566
       4.2351298       638.99349
       4.2365398       639.68294
       4.2379498       639.41289
       4.2393599       639.89772
       4.2407799       638.51345
       4.2421899       638.92023
       4.2435999       633.77842
       4.2450199       635.14956
       4.2464399       628.80852
       4.2478499       633.76004
       4.2492599       633.96763
       4.2506800       630.52902
       4.2521000       627.93940
       4.2535200       630.54589
       4.2549400       634.88968
       4.2563601       634.81314
       4.2577801       634.16852
       4.2591901       632.31123
       4.2606001       631.66118
       4.2620301       633.47869
       4.2634602       633.12503
       4.2648802       633.06276
       4.2663002       629.77572
       4.2677202       630.67548
       4.2691398       625.42732
       4.2705598       631.02125
       4.2719798       626.16534
       4.2734098       626.20342
       4.2748399       629.40173
       4.2762599       629.92982
       4.2776799       629.15214
       4.2791100       627.27918
       4.2805400       626.02880
       4.2819600       625.48378
       4.2833900       622.03879
       4.2848201       627.09591
       4.2862501       627.06408
       4.2876801       624.83178
       4.2891002       626.06113
       4.2905302       625.18658
       4.2919598       621.97924
       4.2933898       623.15157
       4.2948298       533.00895
       4.2962599       525.85493
       4.2976899       555.24691
       4.2991199       577.99427
       4.3005500       566.79903
       4.3019900       578.98042
       4.3034201       584.35710
       4.3048501       588.60300
       4.3062901       585.02161
       4.3077302       588.35474
       4.3091698       590.28435
       4.3105998       588.65346
       4.3120298       581.88936
       4.3134699       585.66994
       4.3149099       611.89778
       4.3163500       592.91901
       4.3177900       585.53220
       4.3192301       585.65510
       4.3206701       612.54151
       4.3221102       579.98615
       4.3235502       584.75143
       4.3249898       616.57092
       4.3264298       582.18966
       4.3278699       613.59795
       4.3293099       583.57683
       4.3307600       586.76301
       4.3322101       601.35391
       4.3336501       581.29022
       4.3350902       609.67218
       4.3365302       581.22959
       4.3379798       612.20149
       4.3394299       576.84247
       4.3408699       608.15452
       4.3423200       578.31257
       4.3437700       610.58153
       4.3452201       572.24461
       4.3466702       608.18111
       4.3481102       567.77773
       4.3495598       607.03790
       4.3510098       479.37706
       4.3524599       551.16603
       4.3539200       526.73179
       4.3553700       556.42398
       4.3568201       551.31754
       4.3582702       587.09672
       4.3597202       568.75567
       4.3611798       564.47952
       4.3626299       572.86257
       4.3640800       531.81629
       4.3655400       574.20201
       4.3670001       540.67426
       4.3684502       573.44245
       4.3699002       579.45945
       4.3713598       567.05967
       4.3728199       572.65372
       4.3742800       545.01673
       4.3757401       567.90751
       4.3772001       591.82196
       4.3786602       538.66325
       4.3801198       579.92091
       4.3815799       553.32792
       4.3830400       572.24846
       4.3845000       596.60069
       4.3859601       538.90380
       4.3874202       589.94932
       4.3888798       575.76784
       4.3903399       534.08857
       4.3917999       582.44246
       4.3932700       554.49311
       4.3947401       557.55045
       4.3962002       555.37751
       4.3976598       577.37928
       4.3991299       531.40130
       4.4006000       580.39564
       4.4020600       522.99033
       4.4035301       573.73328
       4.4050002       555.55441
       4.4064698       541.81451
       4.4079399       458.02669
       4.4094100       535.16541
       4.4108801       496.77099
       4.4123502       516.30438
       4.4138198       549.06376
       4.4152899       516.75558
       4.4167600       543.19796
       4.4182301       523.38994
       4.4197102       553.94954
       4.4211798       509.58609
       4.4226499       540.12084
       4.4241300       556.10006
       4.4256001       494.77867
       4.4270701       569.97031
       4.4285498       535.15467
       4.4300299       518.06271
       4.4315100       557.42105
       4.4329901       539.13185
       4.4344602       521.24109
       4.4359298       556.11370
       4.4374099       546.32376
       4.4388900       558.30413
       4.4403701       500.42684
       4.4418502       559.47179
       4.4433298       547.06595
       4.4448099       508.83055
       4.4462900       556.14502
       4.4477801       558.66821
       4.4492698       503.61271
       4.4507499       537.66586
       4.4522300       532.47947
       4.4537101       540.57372
       4.4552002       506.92185
       4.4566898       556.20066
       4.4581699       513.01283
       4.4596500       561.31380
       4.4611402       510.18640
       4.4626298       534.76324
       4.4641099       548.11336
       4.4656000       471.33857
       4.4670901       471.23718
       4.4685798       528.36559
       4.4700699       502.84160
       4.4715600       480.17109
       4.4730501       539.18654
       4.4745402       510.69400
       4.4760399       515.61966
       4.4775300       472.79392
       4.4790201       547.74807
       4.4805102       503.74536
       4.4819999       514.20824
       4.4835000       515.68869
       4.4850001       498.23237
       4.4864898       541.92875
       4.4879799       561.19071
       4.4894800       462.65379
       4.4909801       528.01139
       4.4924798       518.03935
       4.4939699       542.50415
       4.4954600       474.65074
       4.4969602       530.03686
       4.4984598       528.89687
       4.4999399       536.54342
       4.5014601       498.75989
       4.5029702       544.29519
       4.5044699       515.84348
       4.5059600       490.33007
       4.5074701       519.17621
       4.5089798       506.66696
       4.5104799       512.98223
       4.5119801       535.80705
       4.5134802       486.13880
       4.5149899       526.30797
       4.5164900       519.26760
       4.5180001       519.69250
       4.5195098       505.34982
       4.5210099       520.05841
       4.5225201       501.11626
       4.5240302       496.81068
       4.5255399       452.97877
       4.5270400       463.89411
       4.5285501       486.40818
       4.5300598       518.09404
       4.5315700       481.86223
       4.5330701       482.44981
       4.5345898       496.42645
       4.5361099       511.98209
       4.5376201       528.78007
       4.5391302       463.55121
       4.5406399       528.53658
       4.5421500       482.56166
       4.5436702       515.20916
       4.5451798       479.86224
       4.5467000       501.26262
       4.5482202       516.08953
       4.5497298       501.51915
       4.5512400       488.36750
       4.5527601       489.60096
       4.5542798       500.18057
       4.5558000       546.45961
       4.5573201       484.97405
       4.5588398       486.08802
       4.5603600       518.83941
       4.5618701       493.70012
       4.5633898       503.91623
       4.5649199       503.88121
       4.5664401       493.03328
       4.5679598       496.35941
       4.5694900       488.58494
       4.5710101       490.56592
       4.5725298       499.36396
       4.5740600       508.66253
       4.5755901       477.35967
       4.5771098       523.40961
       4.5786300       502.86522
       4.5801601       462.49458
       4.5816898       496.76053
       4.5832200       514.55628
       4.5847502       459.28390
       4.5862799       476.60315
       4.5878100       468.83960
       4.5893402       437.48018
       4.5908699       496.51786
       4.5924001       511.07211
       4.5939298       469.29718
       4.5954599       448.78159
       4.5969901       501.89265
       4.5985198       509.70877
       4.6000500       462.31141
       4.6015801       473.89785
       4.6031098       496.46485
       4.6046500       482.86843
       4.6061902       528.76702
       4.6077199       481.01035
       4.6092501       438.26898
       4.6107898       523.89015
       4.6123300       480.01106
       4.6138601       492.32858
       4.6153998       474.39702
       4.6169400       470.37825
       4.6184702       506.07530
       4.6200099       470.63039
       4.6215601       485.89253
       4.6230998       503.85588
       4.6246400       477.05909
       4.6261802       437.40301
       4.6277199       523.75052
       4.6292601       503.50702
       4.6308198       453.74662
       4.6323600       511.77738
       4.6339002       469.93008
       4.6354399       509.18342
       4.6369801       448.37541
       4.6385298       513.10307
       4.6400800       470.37108
       4.6416302       502.14321
       4.6431699       453.02569
       4.6447201       495.94762
       4.6462698       488.72883
       4.6478200       466.60714
       4.6493702       453.05073
       4.6509099       490.62693
       4.6524601       456.56130
       4.6540098       473.96874
       4.6555600       489.71445
       4.6571202       477.24779
       4.6586699       488.94905
       4.6602201       425.46994
       4.6617799       495.95245
       4.6633301       495.40386
       4.6648798       480.85824
       4.6664400       447.36678
       4.6680102       450.45078
       4.6695600       509.38618
       4.6711102       487.49244
       4.6726699       477.50088
       4.6742201       470.53396
       4.6757798       494.06143
       4.6773400       484.46480
       4.6788998       462.39780
       4.6804600       456.39451
       4.6820202       497.43136
       4.6835799       477.70724
       4.6851401       458.34104
       4.6867099       506.56096
       4.6882701       477.58172
       4.6898298       479.80900
       4.6914001       452.77970
       4.6929598       489.82711
       4.6945200       498.12289
       4.6960902       472.89124
       4.6976500       493.99745
       4.6992102       438.07023
       4.7007799       482.19006
       4.7023501       485.00003
       4.7039199       468.02194
       4.7054801       502.31821
       4.7070599       459.76223
       4.7086301       445.94247
       4.7101998       497.09061
       4.7117600       445.44624
       4.7133298       449.99345
       4.7149100       474.17156
       4.7164798       481.72304
       4.7180500       428.00283
       4.7196102       459.67084
       4.7211900       484.77669
       4.7227602       496.36396
       4.7243400       472.54181
       4.7259102       451.53677
       4.7274899       480.65012
       4.7290602       461.16750
       4.7306399       499.36383
       4.7322202       465.02027
       4.7338099       431.75304
       4.7353802       468.10060
       4.7369599       502.94653
       4.7385302       456.14120
       4.7401099       457.85094
       4.7416902       450.11369
       4.7432799       505.24416
       4.7448602       445.52982
       4.7464299       480.44884
       4.7480202       482.12397
       4.7495999       459.79055
       4.7511802       458.33697
       4.7527599       480.21517
       4.7543502       473.65907
       4.7559400       467.70469
       4.7575202       467.58786
       4.7591100       458.33084
       4.7607002       482.60486
       4.7622800       469.23024
       4.7638698       461.48706
       4.7654500       457.05194
       4.7670498       452.51260
       4.7686400       488.47477
       4.7702298       456.88029
       4.7718201       480.36457
       4.7734098       450.41765
       4.7749901       462.21709
       4.7765899       458.32374
       4.7781801       455.79019
       4.7797699       442.73245
       4.7813601       456.63383
       4.7829599       464.32422
       4.7845602       483.93245
       4.7861500       422.17375
       4.7877498       458.23867
       4.7893500       479.82198
       4.7909498       486.26618
       4.7925401       432.11276
       4.7941399       448.48871
       4.7957401       441.15271
       4.7973399       465.93281
       4.7989302       498.85526
       4.8005300       438.14564
       4.8021302       438.80550
       4.8037300       462.63599
       4.8053298       444.38196
       4.8069201       457.13145
       4.8085299       476.21298
       4.8101401       449.96500
       4.8117399       474.64642
       4.8133502       431.29154
       4.8149500       464.90804
       4.8165498       458.90839
       4.8181601       478.60623
       4.8197699       448.01524
       4.8213701       480.75505
       4.8229799       439.53341
       4.8245802       431.74176
       4.8261900       498.74136
       4.8277998       430.22269
       4.8294101       499.35948
       4.8310199       451.63292
       4.8326302       464.58151
       4.8342500       423.09778
       4.8358598       482.53346
       4.8374701       450.31269
       4.8390899       475.11072
       4.8406901       450.86409
       4.8422999       482.26793
       4.8439202       411.72609
       4.8455300       463.56590
       4.8471398       457.90673
       4.8487601       432.19473
       4.8503799       466.61633
       4.8520002       482.61784
       4.8536201       437.22277
       4.8552399       446.06019
       4.8568602       433.90700
       4.8584800       473.32486
       4.8600998       458.44585
       4.8617201       468.91317
       4.8633399       415.72933
       4.8649602       421.17184
       4.8665800       474.32158
       4.8681998       461.63143
       4.8698201       454.16467
       4.8714399       446.55133
       4.8730602       451.10129
       4.8746800       447.96084
       4.8763099       418.73896
       4.8779402       456.43951
       4.8795600       466.50988
       4.8811998       445.94825
       4.8828301       451.19056
       4.8844500       446.35619
       4.8860798       454.74714
       4.8877101       442.90795
       4.8893299       442.65256
       4.8909602       445.72834
       4.8925900       469.05227
       4.8942199       456.59692
       4.8958502       450.62009
       4.8974800       428.82617
       4.8991199       446.48294
       4.9007502       456.63421
       4.9023900       473.77423
       4.9040198       462.18977
       4.9056501       423.00792
       4.9072900       447.55438
       4.9089298       418.56895
       4.9105601       460.00070
       4.9122000       456.56127
       4.9138398       443.04057
       4.9154701       410.62387
       4.9171000       452.30169
       4.9187498       420.14104
       4.9203901       429.37298
       4.9220300       462.45107
       4.9236798       465.44331
       4.9253201       427.67645
       4.9269600       416.65930
       4.9285998       430.63009
       4.9302402       471.02245
       4.9318900       437.94866
       4.9335299       456.87158
       4.9351702       437.44074
       4.9368100       433.36005
       4.9384599       410.34387
       4.9401102       467.32731
       4.9417601       441.24943
       4.9434099       419.11713
       4.9450498       457.99436
       4.9466901       439.80646
       4.9483500       399.43447
       4.9499998       468.98305
       4.9516401       447.29267
       4.9533000       443.24845
       4.9549499       414.80649
       4.9566002       451.77556
       4.9582601       425.41547
       4.9599099       425.51870
       4.9615698       451.77341
       4.9632201       438.59643
       4.9648700       467.57516
       4.9665298       433.35746
       4.9681802       423.79068
       4.9698300       434.08787
       4.9714999       442.58006
       4.9731498       449.40122
       4.9748101       440.59708
       4.9764700       463.88656
       4.9781299       405.14665
       4.9797802       413.96212
       4.9814401       452.89458
       4.9831100       422.30868
       4.9847698       450.77943
       4.9864302       438.47985
       4.9880800       452.81567
       4.9897499       402.09066
       4.9914098       405.77080
       4.9930801       434.19927
       4.9947400       434.20151
       4.9964099       456.66939
       4.9980698       453.07287
       4.9997201       404.46711
       5.0014000       412.28996
       5.0030799       427.84333
       5.0047402       460.39730
       5.0064001       429.23029
       5.0080700       423.89460
       5.0097499       418.90809
       5.0114298       446.92028
       5.0130901       414.96614
       5.0147500       416.44818
       5.0164299       443.84752
       5.0180998       408.96352
       5.0197701       445.25778
       5.0214500       415.52632
       5.0231199       432.32676
       5.0247998       425.93138
       5.0264702       454.74765
       5.0281501       408.06471
       5.0298200       422.14416
       5.0314999       432.98432
       5.0331702       414.97979
       5.0348501       444.90602
       5.0365200       442.34231
       5.0382099       448.08064
       5.0398998       413.04601
       5.0415702       439.08262
       5.0432501       394.55583
       5.0449200       455.97889
       5.0466099       413.96957
       5.0482998       449.55011
       5.0499701       447.25724
       5.0516601       435.06189
       5.0533500       402.26007
       5.0550299       401.75828
       5.0567098       437.97237
       5.0584002       413.48941
       5.0600901       430.25281
       5.0617700       439.11357
       5.0634599       441.05934
       5.0651498       418.41924
       5.0668402       379.13811
       5.0685201       444.22503
       5.0702100       434.40291
       5.0719099       426.76214
       5.0735998       438.58715
       5.0752902       412.45915
       5.0769901       410.49781
       5.0786700       415.65193
       5.0803599       430.93841
       5.0820599       423.63740
       5.0837498       399.30608
       5.0854402       448.19807
       5.0871401       421.65791
       5.0888400       403.52132
       5.0905399       443.39540
       5.0922399       393.58385
       5.0939398       415.95738
       5.0956202       420.20382
       5.0973101       411.80744
       5.0990100       430.34426
       5.1007099       420.41355
       5.1024098       424.50217
       5.1041098       423.74938
       5.1058202       393.76893
       5.1075401       419.44411
       5.1092401       405.83446
       5.1109400       438.20270
       5.1126399       407.39136
       5.1143398       429.21939
       5.1160402       427.69028
       5.1177502       410.14601
       5.1194601       396.21390
       5.1211600       408.05631
       5.1228600       422.80649
       5.1245799       415.14705
       5.1262898       425.74927
       5.1279898       430.82022
       5.1297002       427.40905
       5.1314101       402.16468
       5.1331201       380.51282
       5.1348400       415.99587
       5.1365499       403.07220
       5.1382599       441.67348
       5.1399798       433.06730
       5.1416898       428.64605
       5.1434002       395.03791
       5.1451101       380.97845
       5.1468201       401.05712
       5.1485500       430.78788
       5.1502600       418.73116
       5.1519699       414.85967
       5.1536999       421.23342
       5.1554098       412.12842
       5.1571202       432.41347
       5.1588502       391.19275
       5.1605701       407.01604
       5.1623001       405.02410
       5.1640100       438.18293
       5.1657200       410.66492
       5.1674500       402.12117
       5.1691699       416.97940
       5.1708999       421.41107
       5.1726298       407.29167
       5.1743498       412.01218
       5.1760702       425.30934
       5.1778002       411.04242
       5.1795201       405.09925
       5.1812501       422.03383
       5.1829700       411.62337
       5.1847000       407.52528
       5.1864200       402.98148
       5.1881599       387.35836
       5.1898999       418.49209
       5.1916299       408.85101
       5.1933498       421.42537
       5.1950798       410.76372
       5.1968098       438.41429
       5.1985502       393.31836
       5.2002702       380.17608
       5.2020102       420.44586
       5.2037501       384.75117
       5.2054701       409.57504
       5.2072101       418.19647
       5.2089500       421.16928
       5.2106900       409.68714
       5.2124200       375.31152
       5.2141600       389.04545
       5.2158999       425.86232
       5.2176399       387.63709
       5.2193799       426.14724
       5.2211099       408.73427
       5.2228599       400.17283
       5.2245998       397.68678
       5.2263398       397.24675
       5.2280898       407.20743
       5.2298298       404.22451
       5.2315602       394.70481
       5.2333102       417.26264
       5.2350602       410.35897
       5.2368102       404.83416
       5.2385502       417.36827
       5.2402902       381.70507
       5.2420402       400.32901
       5.2437901       419.80816
       5.2455401       398.56358
       5.2472901       394.59883
       5.2490401       398.40215
       5.2507901       426.87540
       5.2525401       392.21783
       5.2542901       411.64128
       5.2560401       386.62631
       5.2577901       388.86202
       5.2595401       419.39646
       5.2612901       394.54951
       5.2630501       397.45510
       5.2648101       421.11538
       5.2665601       401.89040
       5.2683101       384.06737
       5.2700601       399.10724
       5.2718201       401.23332
       5.2735901       389.22996
       5.2753401       424.54142
       5.2771001       397.99734
       5.2788601       423.12308
       5.2806101       388.93812
       5.2823701       377.58970
       5.2841401       410.28659
       5.2859001       383.29061
       5.2876601       401.18267
       5.2894201       412.73937
       5.2911901       414.64314
       5.2929502       386.99172
       5.2947102       379.96717
       5.2964702       383.50884
       5.2982502       416.30633
       5.3000102       395.21597
       5.3017702       400.69970
       5.3035498       399.88438
       5.3053098       399.83022
       5.3070798       396.04212
       5.3088498       370.69452
       5.3106298       395.31055
       5.3123999       394.43302
       5.3141599       404.73485
       5.3159299       373.87922
       5.3176999       410.40643
       5.3194699       393.04673
       5.3212500       414.69518
       5.3230200       382.94285
       5.3248000       400.09032
       5.3265700       377.85236
       5.3283501       384.24196
       5.3301201       404.98583
       5.3319001       380.92392
       5.3336701       405.99115
       5.3354502       408.24533
       5.3372402       376.73053
       5.3390298       383.93961
       5.3407998       366.97535
       5.3425798       398.53891
       5.3443499       399.21662
       5.3461399       384.02699
       5.3479199       402.23345
       5.3497000       401.48625
       5.3514900       375.05407
       5.3532701       385.24977
       5.3550501       364.18581
       5.3568401       390.11635
       5.3586202       391.29718
       5.3604102       404.22852
       5.3621998       382.16237
       5.3639898       396.76653
       5.3657799       383.67844
       5.3675599       381.62903
       5.3693500       393.68616
       5.3711400       372.47745
       5.3729401       390.73880
       5.3747201       408.93361
       5.3765101       394.41105
       5.3783102       374.54928
       5.3800998       370.00725
       5.3818898       386.59991
       5.3836899       392.76181
       5.3854899       405.29481
       5.3872700       379.20221
       5.3890600       383.28490
       5.3908601       392.62414
       5.3926601       397.77832
       5.3944602       374.56968
       5.3962598       379.75311
       5.3980598       380.67803
       5.3998599       410.33617
       5.4016600       372.65751
       5.4034600       396.93802
       5.4052601       381.98291
       5.4070601       402.41950
       5.4088602       369.46425
       5.4106598       377.51521
       5.4124599       381.63187
       5.4142699       387.59408
       5.4160900       395.02073
       5.4178901       380.01914
       5.4196901       392.80005
       5.4215002       384.00634
       5.4233098       372.85998
       5.4251099       381.61381
       5.4269199       359.01966
       5.4287400       394.66972
       5.4305401       389.12313
       5.4323502       392.87050
       5.4341602       385.06767
       5.4359798       397.44345
       5.4377899       368.43405
       5.4396000       362.26890
       5.4414101       396.88899
       5.4432201       365.51650
       5.4450402       389.54446
       5.4468498       390.19189
       5.4486699       401.01471
       5.4504900       376.12074
       5.4523001       371.62184
       5.4541202       366.28271
       5.4559398       373.85885
       5.4577498       391.20721
       5.4595699       369.04655
       5.4614000       390.19647
       5.4632201       384.24218
       5.4650402       382.77202
       5.4668498       364.51023
       5.4686799       371.43191
       5.4705000       384.03267
       5.4723201       367.86368
       5.4741502       385.41322
       5.4759798       382.14383
       5.4777999       369.81747
       5.4796200       390.49250
       5.4814501       371.30519
       5.4832702       373.26243
       5.4850998       375.61377
       5.4869399       380.60707
       5.4887700       383.77649
       5.4906001       367.45457
       5.4924202       389.31452
       5.4942498       370.39931
       5.4960899       379.25141
       5.4979200       374.35954
       5.4994102       363.25195
