wavelength       flux
  microns         mJy
      
      0.80013400       17.903934
      0.80040097       18.839772
      0.80066800       18.906762
      0.80093497       18.804999
      0.80120200       19.104350
      0.80146903       18.986036
      0.80173600       19.252812
      0.80200303       19.005419
      0.80227000       19.086567
      0.80253798       19.283762
      0.80280501       18.615570
      0.80307299       18.457996
      0.80334002       19.292686
      0.80360800       18.937487
      0.80387598       19.367713
      0.80414498       19.296515
      0.80441201       19.393309
      0.80467999       18.992893
      0.80494899       17.707504
      0.80521703       19.127994
      0.80548501       19.364707
      0.80575401       19.238810
      0.80602199       19.553136
      0.80629098       19.397437
      0.80655998       19.328588
      0.80682898       19.505205
      0.80709797       19.240365
      0.80736703       18.685096
      0.80763602       18.676831
      0.80790502       19.582688
      0.80817401       19.332676
      0.80844402       19.350151
      0.80871302       18.773630
      0.80898303       19.806195
      0.80925298       19.078662
      0.80952299       18.711506
      0.80979198       19.287980
      0.81006199       19.270018
      0.81033200       19.627318
      0.81060201       19.450661
      0.81087202       19.519592
      0.81114298       19.407566
      0.81141299       19.766810
      0.81168300       19.331537
      0.81195402       19.467959
      0.81222498       19.815747
      0.81249499       19.951657
      0.81276602       19.633515
      0.81303698       19.834658
      0.81330800       19.667359
      0.81357902       20.149985
      0.81384999       19.744248
      0.81412202       19.841069
      0.81439298       19.904203
      0.81466401       20.092323
      0.81493598       20.074464
      0.81520802       19.437079
      0.81547898       20.097085
      0.81575102       19.980654
      0.81602299       20.279477
      0.81629598       19.785475
      0.81656700       20.079298
      0.81683898       20.269313
      0.81711203       20.115018
      0.81738400       20.360831
      0.81765699       20.111472
      0.81792998       20.410914
      0.81820202       19.793843
      0.81847501       19.384870
      0.81874698       20.400796
      0.81901997       19.829617
      0.81929302       20.813220
      0.81956702       19.537986
      0.81984001       19.431697
      0.82011300       20.011279
      0.82038599       20.401234
      0.82066000       19.741616
      0.82093298       20.035407
      0.82120699       20.582380
      0.82147998       19.791471
      0.82175398       20.539932
      0.82202798       20.905615
      0.82230198       19.356634
      0.82257599       20.736048
      0.82284999       21.010833
      0.82312500       20.613266
      0.82339901       19.874551
      0.82367402       20.792149
      0.82394898       20.804238
      0.82422298       20.437002
      0.82449800       20.624584
      0.82477301       21.179225
      0.82504803       20.469201
      0.82532299       20.891753
      0.82559800       21.031467
      0.82587302       20.888981
      0.82614797       21.162998
      0.82642299       21.271353
      0.82669902       21.100097
      0.82697397       20.912535
      0.82725000       21.249137
      0.82752699       20.922944
      0.82780200       21.096289
      0.82807702       21.336163
      0.82835299       21.228830
      0.82862997       21.407551
      0.82890600       21.076980
      0.82918298       21.290626
      0.82945901       20.939403
      0.82973498       21.206883
      0.83001202       21.013728
      0.83028901       21.443867
      0.83056498       21.321780
      0.83084202       20.739111
      0.83111900       20.893585
      0.83139598       21.063234
      0.83167398       21.438253
      0.83195102       21.401382
      0.83222800       21.261753
      0.83250499       21.632163
      0.83278298       21.247417
      0.83306098       20.006774
      0.83333802       20.794829
      0.83361602       21.199066
      0.83389300       21.514855
      0.83417100       21.341447
      0.83444899       21.536347
      0.83472800       21.196224
      0.83500600       20.948979
      0.83528399       21.986189
      0.83556300       21.642529
      0.83584100       21.928001
      0.83612001       21.675925
      0.83639902       21.809653
      0.83667803       20.460095
      0.83695698       22.273682
      0.83723497       21.724566
      0.83751500       22.032969
      0.83779401       22.220083
      0.83807302       21.454305
      0.83835298       21.359225
      0.83863199       21.422508
      0.83891100       19.849039
      0.83919102       21.754821
      0.83947098       22.516241
      0.83974999       22.424132
      0.84003001       21.591157
      0.84030998       21.692696
      0.84059000       22.365513
      0.84087002       22.409679
      0.84115100       22.555045
      0.84143102       21.644564
      0.84171200       22.585078
      0.84199202       21.923017
      0.84227300       22.375413
      0.84255397       21.982569
      0.84283501       21.367715
      0.84311599       22.831744
      0.84339702       22.672038
      0.84367800       20.526495
      0.84395897       22.807485
      0.84424001       21.714840
      0.84452200       22.824281
      0.84480298       22.535533
      0.84508502       22.673676
      0.84536600       22.789919
      0.84564799       22.988464
      0.84592998       22.652243
      0.84621298       22.914954
      0.84649402       23.035596
      0.84677601       22.705396
      0.84705800       21.110056
      0.84734100       22.664326
      0.84762299       23.310320
      0.84790599       23.134197
      0.84818900       23.043703
      0.84847099       22.791956
      0.84875399       23.262522
      0.84903699       23.151770
      0.84931999       23.307565
      0.84960300       23.210852
      0.84988600       20.224640
      0.85017002       19.773099
      0.85045302       22.849480
      0.85073602       23.157748
      0.85101998       23.525856
      0.85130399       23.448631
      0.85158700       21.710064
      0.85187101       22.544859
      0.85215598       22.832083
      0.85243899       23.491023
      0.85272300       23.471375
      0.85300797       22.811956
      0.85329199       23.397513
      0.85357702       23.450114
      0.85386097       22.708931
      0.85414600       21.070617
      0.85443097       13.991298
      0.85471499       20.876229
      0.85500002       22.544064
      0.85528499       23.468334
      0.85557002       23.836309
      0.85585600       23.307156
      0.85614097       23.910867
      0.85642600       23.801527
      0.85671198       23.835762
      0.85699701       23.809993
      0.85728300       24.023106
      0.85756898       23.857377
      0.85785401       23.970934
      0.85813999       24.253497
      0.85842597       23.203203
      0.85871202       24.018929
      0.85899901       24.152197
      0.85928500       24.182695
      0.85957199       24.126577
      0.85985798       24.096571
      0.86014497       23.867631
      0.86043203       24.223580
      0.86071801       23.976357
      0.86100501       24.361520
      0.86129200       23.060388
      0.86157900       24.444316
      0.86186701       24.249644
      0.86215401       24.516608
      0.86244100       23.655165
      0.86272901       24.493010
      0.86301601       24.585517
      0.86330402       24.578905
      0.86359102       24.559829
      0.86387998       24.557864
      0.86416698       24.580446
      0.86445498       24.323296
      0.86474299       24.900138
      0.86503202       24.102417
      0.86532098       24.818728
      0.86560899       24.567587
      0.86589700       24.475822
      0.86618602       22.660541
      0.86647499       15.296433
      0.86676401       23.247652
      0.86705297       24.458703
      0.86734200       24.684750
      0.86763102       22.999130
      0.86791998       24.828796
      0.86820900       24.338618
      0.86849898       24.621450
      0.86878800       25.006078
      0.86907798       21.527573
      0.86936700       24.715137
      0.86965698       25.013737
      0.86994702       25.425606
      0.87023699       24.041087
      0.87052798       25.151660
      0.87081701       25.415982
      0.87110698       25.416748
      0.87139797       24.326491
      0.87168801       25.107300
      0.87197900       25.122848
      0.87226897       25.474429
      0.87256002       25.527255
      0.87285101       25.717560
      0.87314200       25.118678
      0.87343299       25.750381
      0.87372398       24.663336
      0.87401497       25.329865
      0.87430698       25.668294
      0.87459898       25.375903
      0.87489003       25.546578
      0.87518102       25.505135
      0.87547302       25.140793
      0.87576598       25.989837
      0.87605798       24.706353
      0.87634999       26.110416
      0.87664098       25.219578
      0.87693298       25.717945
      0.87722498       25.991518
      0.87751800       24.963239
      0.87781000       26.014585
      0.87810302       26.047964
      0.87839597       26.302255
      0.87868899       26.099106
      0.87898201       26.227644
      0.87927502       25.682887
      0.87956798       25.452244
      0.87986100       26.190856
      0.88015401       26.407826
      0.88044798       26.423947
      0.88074100       25.261200
      0.88103402       23.433201
      0.88132799       26.364685
      0.88162202       26.549990
      0.88191599       26.625150
      0.88220900       26.285617
      0.88250399       26.159663
      0.88279802       24.551530
      0.88309199       26.710483
      0.88338602       26.871884
      0.88368100       26.563830
      0.88397598       25.469624
      0.88427001       26.540559
      0.88456500       26.816044
      0.88485998       26.552255
      0.88515502       26.948959
      0.88545001       27.014307
      0.88574499       27.052367
      0.88604099       27.031289
      0.88633603       26.748562
      0.88663101       26.175839
      0.88692701       26.033886
      0.88722199       26.760125
      0.88751799       27.267747
      0.88781399       26.937840
      0.88810998       26.760217
      0.88840598       27.301366
      0.88870198       27.259546
      0.88899899       27.400350
      0.88929498       27.347737
      0.88959098       27.150660
      0.88988698       27.437268
      0.89018399       27.476794
      0.89048100       27.524154
      0.89077801       27.612806
      0.89107502       27.467529
      0.89137203       27.431676
      0.89166898       27.693958
      0.89196599       27.663819
      0.89226300       27.040833
      0.89256102       27.244775
      0.89285898       27.404939
      0.89315599       27.340994
      0.89345300       27.380808
      0.89375198       27.930278
      0.89404899       27.936995
      0.89434701       27.935488
      0.89464498       26.936064
      0.89494300       27.220068
      0.89524198       27.813505
      0.89554000       28.166070
      0.89583898       28.064337
      0.89613801       28.086080
      0.89643598       27.987458
      0.89673501       27.917439
      0.89703399       27.846031
      0.89733303       28.330093
      0.89763200       28.032603
      0.89793098       27.367714
      0.89823103       28.086407
      0.89853001       28.390735
      0.89882898       28.137552
      0.89912897       28.095956
      0.89942902       28.406531
      0.89972800       28.256621
      0.90002799       28.341081
      0.90032798       26.550874
      0.90062898       28.644901
      0.90092897       28.536984
      0.90122998       27.173428
      0.90153003       27.196776
      0.90183002       27.492393
      0.90213102       28.496324
      0.90243101       28.081227
      0.90273201       28.547543
      0.90303302       28.604301
      0.90333402       28.722722
      0.90363598       29.036017
      0.90393698       28.643854
      0.90423799       29.092589
      0.90453899       29.117894
      0.90484101       29.100190
      0.90514201       29.147896
      0.90544498       28.893345
      0.90574598       29.211014
      0.90604699       29.117240
      0.90635002       28.402581
      0.90665197       29.231675
      0.90695399       29.273910
      0.90725601       29.102651
      0.90755898       29.414469
      0.90786099       29.447201
      0.90816402       28.295353
      0.90846699       29.548421
      0.90877002       29.289250
      0.90907300       26.738691
      0.90937603       29.182135
      0.90967900       28.836875
      0.90998203       29.585899
      0.91028500       28.988726
      0.91058898       29.291171
      0.91089201       29.188350
      0.91119599       29.459679
      0.91149998       29.136672
      0.91180301       29.668382
      0.91210699       28.673901
      0.91241097       29.937451
      0.91271502       29.615995
      0.91302001       30.016961
      0.91332400       30.005333
      0.91362798       30.040837
      0.91393298       29.958599
      0.91423798       29.145996
      0.91454202       29.275494
      0.91484702       29.272514
      0.91515201       29.336800
      0.91545701       29.909075
      0.91576201       29.436033
      0.91606802       29.778208
      0.91637301       30.020222
      0.91667801       29.549538
      0.91698402       29.010423
      0.91728997       29.161619
      0.91759598       28.474987
      0.91790098       29.790716
      0.91820699       29.670926
      0.91851300       29.478503
      0.91881901       29.913054
      0.91912597       29.449265
      0.91943198       29.488648
      0.91973901       29.994039
      0.92004502       29.149749
      0.92035198       29.850008
      0.92065901       29.627492
      0.92096603       29.697140
      0.92127299       28.800802
      0.92158002       29.463672
      0.92188698       29.438403
      0.92219400       29.523478
      0.92250198       30.952760
      0.92280900       29.155501
      0.92311698       29.519992
      0.92342401       29.345068
      0.92373198       30.487645
      0.92404002       29.987049
      0.92434800       29.813043
      0.92465597       30.757688
      0.92496401       29.769529
      0.92527300       30.321565
      0.92558098       30.839209
      0.92589003       28.948095
      0.92619801       29.443021
      0.92650700       29.997672
      0.92681599       31.127752
      0.92712498       31.176822
      0.92743403       30.196203
      0.92774302       31.408819
      0.92805201       30.542172
      0.92836201       30.639568
      0.92867100       31.820422
      0.92898101       30.383557
      0.92929000       30.003855
      0.92960000       31.177178
      0.92991000       30.325338
      0.93022001       31.730629
      0.93053001       31.430170
      0.93084002       30.554473
      0.93115002       31.993902
      0.93146098       31.247808
      0.93177098       31.668358
      0.93208200       30.824543
      0.93239301       31.474819
      0.93270302       31.584650
      0.93301398       31.188682
      0.93332499       32.441440
      0.93363601       30.968611
      0.93394798       31.987435
      0.93425900       32.038802
      0.93457001       31.919110
      0.93488199       31.817226
      0.93519300       31.173393
      0.93550599       32.363066
      0.93581700       31.412153
      0.93612897       31.463266
      0.93644100       31.272650
      0.93675297       32.237009
      0.93706501       31.766169
      0.93737799       32.077892
      0.93769002       31.966307
      0.93800300       32.611431
      0.93831599       31.657940
      0.93862802       31.953281
      0.93894100       32.341160
      0.93925399       32.483508
      0.93956703       31.829358
      0.93988001       31.808864
      0.94019401       32.730288
      0.94050699       32.186138
      0.94081998       31.455827
      0.94113398       32.709048
      0.94144797       31.386920
      0.94176102       30.153336
      0.94207501       32.305923
      0.94238901       32.253284
      0.94270402       32.464860
      0.94301802       33.135503
      0.94333202       31.851889
      0.94364703       32.292095
      0.94396198       32.318457
      0.94427598       32.107091
      0.94459099       32.403549
      0.94490600       32.044559
      0.94522101       32.875237
      0.94553602       32.675812
      0.94585103       33.010226
      0.94616598       33.122994
      0.94648099       32.479762
      0.94679701       33.416234
      0.94711298       33.094056
      0.94742799       33.826858
      0.94774401       33.412568
      0.94805998       32.974741
      0.94837600       33.394197
      0.94869298       33.361901
      0.94900799       32.863168
      0.94932503       34.260493
      0.94964099       33.220240
      0.94995803       33.803547
      0.95027399       33.821486
      0.95059103       33.377634
      0.95090801       33.949000
      0.95122498       33.136158
      0.95154202       33.952341
      0.95185900       34.384615
      0.95217699       33.070037
      0.95249403       34.761162
      0.95281100       33.649242
      0.95312899       33.803852
      0.95344698       34.907800
      0.95376402       33.186362
      0.95408201       34.851653
      0.95440000       34.535777
      0.95471799       32.298543
      0.95503700       34.051993
      0.95535499       34.233419
      0.95567399       34.428354
      0.95599198       33.985376
      0.95631099       34.356053
      0.95662999       34.508976
      0.95694900       35.070338
      0.95726800       33.772486
      0.95758700       33.702964
      0.95790601       35.015276
      0.95822501       34.450527
      0.95854402       35.130154
      0.95886397       34.570241
      0.95918298       35.061078
      0.95950300       35.553719
      0.95982301       34.667955
      0.96014398       33.979782
      0.96046299       35.369091
      0.96078300       34.699766
      0.96110302       34.814150
      0.96142399       35.847851
      0.96174401       35.516006
      0.96206498       35.458588
      0.96238601       35.176225
      0.96270698       34.909450
      0.96302801       35.199633
      0.96334898       36.134465
      0.96367002       34.988936
      0.96399099       33.508096
      0.96431202       36.023640
      0.96463299       35.735859
      0.96495599       34.501528
      0.96527702       36.016296
      0.96559799       35.221120
      0.96592098       35.588765
      0.96624202       35.473284
      0.96656400       35.401566
      0.96688598       36.062328
      0.96720898       35.860749
      0.96753198       36.104461
      0.96785402       34.331285
      0.96817601       36.511555
      0.96849900       36.226485
      0.96882200       36.444928
      0.96914500       35.573961
      0.96946800       35.949253
      0.96979100       36.537263
      0.97011399       36.861614
      0.97043800       36.388860
      0.97076100       35.036252
      0.97108501       37.121878
      0.97140801       37.120196
      0.97173202       36.557310
      0.97205698       36.135429
      0.97237998       36.747058
      0.97270399       37.160725
      0.97302800       35.602077
      0.97335303       36.950864
      0.97367698       36.496225
      0.97400200       35.805185
      0.97432703       37.472625
      0.97465199       35.878497
      0.97497600       36.239089
      0.97530198       37.575386
      0.97562701       36.931451
      0.97595203       37.371587
      0.97627699       37.390045
      0.97660202       36.563973
      0.97692800       37.980723
      0.97725302       36.256074
      0.97757900       37.717542
      0.97790498       38.075960
      0.97823101       37.295055
      0.97855699       35.943995
      0.97888398       36.429760
      0.97921002       37.672569
      0.97953600       37.829183
      0.97986299       38.230212
      0.98018998       37.553763
      0.98051602       38.049981
      0.98084301       38.189811
      0.98117000       38.263814
      0.98149699       38.181900
      0.98182398       38.376499
      0.98215199       38.518044
      0.98247898       38.330508
      0.98280698       37.939147
      0.98313397       38.717251
      0.98346102       38.011895
      0.98378998       38.405163
      0.98411798       38.806393
      0.98444498       38.614239
      0.98477298       38.795741
      0.98510098       38.563904
      0.98543000       38.818277
      0.98575801       38.811079
      0.98608702       39.394383
      0.98641598       38.270278
      0.98674500       39.219893
      0.98707402       39.288623
      0.98740298       38.866742
      0.98773199       39.309143
      0.98806101       39.609555
      0.98839098       38.828233
      0.98872000       39.459806
      0.98904902       38.701650
      0.98937899       38.851101
      0.98970801       39.868111
      0.99003798       39.140465
      0.99036801       39.085488
      0.99069899       39.279139
      0.99102902       39.678487
      0.99135900       39.615678
      0.99168998       39.070129
      0.99202001       40.014536
      0.99235100       39.629174
      0.99268198       39.608325
      0.99301302       39.903518
      0.99334401       39.599922
      0.99367499       40.000829
      0.99400598       40.261900
      0.99433702       39.606943
      0.99466902       39.872877
      0.99500000       40.258852
      0.99533200       40.001670
      0.99566400       40.206174
      0.99599499       40.478589
      0.99632698       40.559962
      0.99665999       40.524485
      0.99699199       40.653523
      0.99732399       40.338711
      0.99765700       40.277262
      0.99798900       40.766065
      0.99832201       40.757154
      0.99865502       40.910712
      0.99898797       40.604153
      0.99932098       41.007573
      0.99965400       40.670518
      0.99996001       40.984114
       1.0003200       40.972096
       1.0006500       41.124990
       1.0009900       40.649709
       1.0013200       41.002771
       1.0016500       41.624831
       1.0019900       41.547121
       1.0023201       41.344885
       1.0026600       41.747704
       1.0029900       41.142940
       1.0033300       41.505082
       1.0036600       41.440636
       1.0039901       40.996514
       1.0043300       41.811904
       1.0046600       41.850787
       1.0050000       40.986692
       1.0053300       40.343298
       1.0056700       41.561000
       1.0060000       41.323713
       1.0063400       41.679377
       1.0066800       40.927387
       1.0070100       42.085704
       1.0073500       42.419111
       1.0076801       42.413019
       1.0080200       41.839588
       1.0083500       42.261079
       1.0086900       42.027073
       1.0090300       42.287504
       1.0093600       42.437312
       1.0096999       42.501899
       1.0100400       42.670552
       1.0103700       42.515085
       1.0107100       41.600455
       1.0110500       42.980112
       1.0113800       42.677816
       1.0117199       42.570256
       1.0120600       42.799455
       1.0123900       43.066515
       1.0127300       42.938722
       1.0130700       43.165794
       1.0134100       43.304519
       1.0137500       43.107143
       1.0140800       43.312994
       1.0144200       43.085133
       1.0147600       42.093419
       1.0151000       42.998158
       1.0154400       43.350003
       1.0157700       42.496781
       1.0161099       43.729891
       1.0164500       43.526313
       1.0167900       43.117804
       1.0171300       43.164398
       1.0174700       43.512497
       1.0178100       43.971491
       1.0181500       43.718707
       1.0184900       43.426288
       1.0188299       43.261656
       1.0191700       44.034028
       1.0195100       43.155123
       1.0198500       43.634353
       1.0201800       43.939774
       1.0205200       43.957365
       1.0208600       44.324402
       1.0211999       44.185251
       1.0215501       43.850105
       1.0218900       43.131732
       1.0222300       43.591394
       1.0225700       44.349591
       1.0229100       44.523028
       1.0232500       44.731249
       1.0235900       44.461814
       1.0239300       44.802750
       1.0242701       44.688754
       1.0246100       45.063288
       1.0249600       44.683327
       1.0253000       45.028795
       1.0256400       45.044374
       1.0259800       45.131863
       1.0263200       44.975232
       1.0266700       44.698340
       1.0270100       45.373385
       1.0273499       45.082764
       1.0276901       45.388868
       1.0280401       45.535802
       1.0283800       45.503271
       1.0287200       45.369140
       1.0290600       44.201635
       1.0294100       45.702585
       1.0297500       45.800938
       1.0300900       45.513869
       1.0304400       45.440618
       1.0307800       45.944122
       1.0311199       45.840477
       1.0314699       45.870638
       1.0318100       46.024022
       1.0321600       46.122743
       1.0325000       46.039408
       1.0328400       45.415245
       1.0331900       44.455383
       1.0335300       46.010322
       1.0338800       45.997214
       1.0342200       45.236792
       1.0345600       44.783575
       1.0349100       46.162974
       1.0352499       46.494675
       1.0355999       46.277121
       1.0359499       46.570553
       1.0362900       46.923953
       1.0366400       46.607343
       1.0369800       46.899244
       1.0373300       45.088133
       1.0376700       46.575418
       1.0380200       45.777213
       1.0383700       47.114913
       1.0387100       47.293030
       1.0390600       47.171387
       1.0394000       47.050098
       1.0397500       45.882719
       1.0401000       45.868181
       1.0404400       47.448004
       1.0407900       47.317192
       1.0411400       47.346607
       1.0414799       47.554537
       1.0418299       47.332946
       1.0421799       47.841577
       1.0425299       46.305058
       1.0428700       47.342701
       1.0432200       47.831900
       1.0435700       47.794809
       1.0439200       47.725706
       1.0442700       48.013434
       1.0446100       48.174402
       1.0449600       48.030065
       1.0453100       48.229689
       1.0456600       47.982493
       1.0460100       47.875862
       1.0463600       47.667399
       1.0467000       48.492790
       1.0470500       47.869315
       1.0474000       46.992044
       1.0477500       48.560294
       1.0481000       48.455758
       1.0484500       48.379129
       1.0488000       48.086908
       1.0491500       48.908752
       1.0495000       48.949172
       1.0498500       47.716847
       1.0502000       49.064462
       1.0505500       48.677532
       1.0509000       48.963487
       1.0512500       48.689337
       1.0516000       49.057372
       1.0519500       49.049183
       1.0523000       49.247717
       1.0526500       49.357778
       1.0530000       49.466283
       1.0533500       47.915400
       1.0537000       49.525816
       1.0540500       49.584612
       1.0544100       49.442417
       1.0547600       49.874051
       1.0551100       49.725731
       1.0554600       49.442088
       1.0558100       49.851856
       1.0561600       49.821806
       1.0565200       50.055294
       1.0568700       49.933273
       1.0572200       49.771505
       1.0575700       49.708309
       1.0579300       49.565286
       1.0582800       50.146480
       1.0586300       47.114787
       1.0589800       48.522225
       1.0593400       50.107897
       1.0596900       50.319679
       1.0600400       50.589322
       1.0604000       50.485081
       1.0607500       47.596052
       1.0611000       50.447530
       1.0614600       50.752568
       1.0618100       50.405074
       1.0621700       50.675197
       1.0625200       50.941594
       1.0628700       50.262928
       1.0632300       50.024886
       1.0635800       51.056036
       1.0639400       51.091799
       1.0642900       51.312217
       1.0646501       51.278382
       1.0650001       51.059244
       1.0653600       51.420160
       1.0657099       51.293255
       1.0660700       51.580711
       1.0664200       48.144885
       1.0667800       51.560625
       1.0671300       51.247053
       1.0674900       51.191911
       1.0678400       51.392897
       1.0682000       51.848004
       1.0685600       50.947060
       1.0689100       51.288670
       1.0692700       49.681046
       1.0696300       50.605028
       1.0699800       52.197988
       1.0703400       51.423514
       1.0707000       51.293860
       1.0710500       51.587481
       1.0714099       52.384024
       1.0717700       52.169179
       1.0721200       51.478917
       1.0724800       52.583396
       1.0728400       50.981001
       1.0732000       50.723245
       1.0735500       51.624020
       1.0739100       52.803829
       1.0742700       52.719907
       1.0746300       52.322670
       1.0749900       52.748866
       1.0753500       50.563309
       1.0757000       51.806256
       1.0760601       53.069721
       1.0764199       53.150033
       1.0767800       53.113432
       1.0771400       52.978981
       1.0775000       53.328582
       1.0778600       52.978249
       1.0782200       53.184420
       1.0785800       51.625687
       1.0789400       50.981655
       1.0793000       53.590491
       1.0796601       53.113005
       1.0800101       53.382939
       1.0803699       53.481990
       1.0807300       53.551316
       1.0810900       53.417215
       1.0814500       50.312032
       1.0818200       53.880424
       1.0821800       53.143157
       1.0825400       53.872060
       1.0829000       50.547589
       1.0832601       53.812983
       1.0836200       53.547890
       1.0839800       54.346333
       1.0843400       54.186339
       1.0847000       52.794176
       1.0850700       54.320747
       1.0854300       54.526152
       1.0857900       54.548555
       1.0861501       54.664542
       1.0865099       53.760487
       1.0868700       54.843736
       1.0872400       49.971503
       1.0876000       53.826523
       1.0879600       54.635719
       1.0883300       54.166650
       1.0886900       52.299206
       1.0890501       54.822327
       1.0894099       54.611193
       1.0897800       53.635641
       1.0901400       55.239306
       1.0905000       55.312514
       1.0908700       54.861322
       1.0912300       55.335285
       1.0915999       55.328103
       1.0919600       53.859136
       1.0923200       55.368416
       1.0926900       55.006434
       1.0930500       52.804168
       1.0934200       54.120318
       1.0937800       54.547784
       1.0941401       52.401920
       1.0945100       54.329353
       1.0948700       55.210298
       1.0952400       54.737847
       1.0956000       53.681663
       1.0959700       53.930817
       1.0963300       55.423326
       1.0967000       50.948872
       1.0970600       52.716970
       1.0974300       54.785245
       1.0978000       54.537811
       1.0981600       51.653202
       1.0985301       54.336481
       1.0988899       53.398136
       1.0992600       54.991470
       1.0996300       55.446480
       1.0999900       53.012776
       1.1003600       55.084822
       1.1007299       54.076254
       1.1010900       55.306316
       1.1014600       54.430018
       1.1018300       54.359030
       1.1022000       53.581226
       1.1025600       54.167358
       1.1029299       56.567338
       1.1033000       53.483764
       1.1036700       55.881006
       1.1040300       54.578851
       1.1044000       56.490016
       1.1047699       55.289122
       1.1051400       55.409898
       1.1055100       57.092300
       1.1058800       55.511144
       1.1062400       55.247050
       1.1066099       56.263027
       1.1069800       56.424523
       1.1073500       56.396659
       1.1077200       56.430285
       1.1080900       55.864511
       1.1084599       56.254140
       1.1088300       57.681083
       1.1092000       56.197888
       1.1095700       56.023269
       1.1099401       56.778728
       1.1103100       57.357838
       1.1106800       56.072988
       1.1110500       57.261811
       1.1114200       57.714340
       1.1117899       57.613016
       1.1121600       54.446499
       1.1125300       57.778864
       1.1129000       57.855319
       1.1132700       57.288483
       1.1136400       55.735056
       1.1140100       59.161990
       1.1143900       58.196750
       1.1147600       55.408289
       1.1151299       58.249944
       1.1155000       58.414842
       1.1158700       57.963505
       1.1162400       56.558034
       1.1166199       59.549603
       1.1169900       58.683845
       1.1173600       57.803108
       1.1177300       57.706282
       1.1181099       59.637901
       1.1184800       58.858493
       1.1188500       57.542581
       1.1192200       56.535902
       1.1196001       59.520789
       1.1199700       57.123328
       1.1203400       57.996685
       1.1207200       58.761487
       1.1210901       59.620741
       1.1214600       58.648261
       1.1218400       59.219424
       1.1222100       59.924951
       1.1225899       59.243988
       1.1229600       58.986426
       1.1233300       58.936673
       1.1237100       60.254941
       1.1240799       60.124667
       1.1244600       60.266634
       1.1248300       57.351156
       1.1252100       61.074516
       1.1255800       56.164553
       1.1259600       58.220340
       1.1263300       57.316028
       1.1267101       61.302373
       1.1270800       60.782606
       1.1274600       60.915913
       1.1278400       59.365825
       1.1282099       59.399747
       1.1285900       61.586951
       1.1289600       60.909580
       1.1293401       59.618139
       1.1297200       59.834918
       1.1300900       57.969077
       1.1304700       61.868734
       1.1308500       61.335762
       1.1312200       60.282427
       1.1316000       58.894028
       1.1319799       61.821142
       1.1323600       62.021497
       1.1327300       61.796403
       1.1331100       60.675569
       1.1334900       59.451565
       1.1338700       61.572278
       1.1342400       61.334691
       1.1346200       62.135784
       1.1350000       61.429870
       1.1353800       61.259554
       1.1357599       59.991205
       1.1361400       62.641808
       1.1365100       62.399200
       1.1368901       62.004750
       1.1372700       62.469331
       1.1376500       58.265964
       1.1380301       62.939315
       1.1384100       59.881313
       1.1387900       63.151863
       1.1391701       61.834986
       1.1395500       59.614975
       1.1399300       62.283833
       1.1403100       62.795793
       1.1406900       59.845094
       1.1410700       62.412032
       1.1414500       61.949545
       1.1418300       62.834691
       1.1422100       62.867023
       1.1425900       60.638754
       1.1429700       62.793917
       1.1433500       64.006650
       1.1437300       62.190219
       1.1441100       60.471676
       1.1445000       63.406746
       1.1448801       63.324539
       1.1452600       63.341984
       1.1456400       64.450985
       1.1460201       62.088754
       1.1464100       64.034945
       1.1467900       64.416084
       1.1471699       64.280320
       1.1475500       62.567049
       1.1479300       64.591328
       1.1483200       62.677823
       1.1487000       63.548228
       1.1490800       64.141687
       1.1494700       64.699446
       1.1498500       64.094740
       1.1502301       65.176384
       1.1506100       62.882021
       1.1510000       65.383932
       1.1513799       64.502231
       1.1517700       65.060416
       1.1521500       64.231861
       1.1525300       64.755247
       1.1529200       64.552638
       1.1533000       64.564656
       1.1536900       65.171422
       1.1540700       65.826948
       1.1544600       64.229883
       1.1548400       66.096732
       1.1552300       65.340870
       1.1556100       64.866462
       1.1560000       66.221505
       1.1563801       65.521135
       1.1567700       65.154030
       1.1571500       66.343754
       1.1575400       66.259347
       1.1579200       64.760098
       1.1583101       66.302428
       1.1587000       65.753367
       1.1590800       65.559025
       1.1594700       64.953883
       1.1598600       63.239522
       1.1602401       66.063590
       1.1606300       66.111643
       1.1610200       62.361000
       1.1614000       63.192594
       1.1617900       65.763239
       1.1621799       66.969487
       1.1625600       67.206886
       1.1629500       66.518373
       1.1633400       66.131565
       1.1637300       67.134487
       1.1641099       63.680610
       1.1645000       66.034859
       1.1648901       67.635471
       1.1652800       67.358738
       1.1656700       66.902846
       1.1660600       66.720178
       1.1664500       67.256886
       1.1668299       67.306431
       1.1672200       66.238408
       1.1676100       68.094523
       1.1680000       68.058319
       1.1683900       67.444705
       1.1687800       67.387281
       1.1691700       62.899942
       1.1695600       67.278291
       1.1699500       67.653866
       1.1703399       67.825495
       1.1707300       68.635922
       1.1711200       67.913643
       1.1715100       67.906393
       1.1719000       68.368450
       1.1722900       68.920999
       1.1726800       67.537699
       1.1730700       68.675256
       1.1734700       69.025924
       1.1738600       68.325495
       1.1742500       68.238540
       1.1746401       69.196666
       1.1750300       68.581473
       1.1754200       68.061706
       1.1758100       67.685602
       1.1762100       69.590235
       1.1766000       69.371750
       1.1769900       68.933337
       1.1773800       68.356892
       1.1777800       67.691723
       1.1781700       68.847889
       1.1785600       65.083778
       1.1789500       69.776091
       1.1793500       69.797535
       1.1797400       69.484186
       1.1801300       69.261452
       1.1805300       70.048288
       1.1809200       70.179856
       1.1813101       68.403316
       1.1817100       69.918247
       1.1821001       70.261728
       1.1824900       70.058266
       1.1828901       68.601928
       1.1832800       62.620025
       1.1836801       70.782411
       1.1840700       69.641873
       1.1844701       69.549495
       1.1848600       70.978565
       1.1852601       70.410649
       1.1856500       70.898796
       1.1860501       70.564052
       1.1864400       70.484690
       1.1868401       71.187387
       1.1872300       71.261767
       1.1876301       69.850288
       1.1880200       71.450851
       1.1884201       67.016425
       1.1888200       65.548679
       1.1892101       69.986265
       1.1896100       70.225316
       1.1900100       71.179754
       1.1904000       71.741167
       1.1908000       71.397652
       1.1912000       71.437137
       1.1915900       71.913324
       1.1919900       72.296077
       1.1923900       71.589586
       1.1927900       71.568099
       1.1931800       72.342734
       1.1935800       72.460514
       1.1939800       71.789142
       1.1943800       72.058267
       1.1947700       72.281195
       1.1951700       70.925434
       1.1955700       72.240731
       1.1959701       71.042832
       1.1963700       72.871935
       1.1967700       72.734073
       1.1971700       72.166772
       1.1975600       64.434571
       1.1979600       72.460141
       1.1983600       72.865141
       1.1987600       68.046209
       1.1991600       72.644181
       1.1995600       68.742518
       1.1999600       73.304247
       1.2003599       73.415535
       1.2007600       71.420661
       1.2011600       73.256374
       1.2015600       73.508819
       1.2019600       73.592480
       1.2023600       73.288285
       1.2027600       73.718838
       1.2031699       73.179057
       1.2035700       67.774773
       1.2039700       73.419344
       1.2043700       72.721890
       1.2047700       73.515948
       1.2051700       74.167369
       1.2055700       73.664175
       1.2059799       73.901356
       1.2063800       74.130181
       1.2067800       74.030360
       1.2071800       74.159160
       1.2075800       73.954351
       1.2079901       74.522102
       1.2083900       73.372406
       1.2087899       65.883389
       1.2092000       74.819076
       1.2096000       74.529609
       1.2100000       74.342884
       1.2104000       74.723844
       1.2108099       71.791202
       1.2112100       74.436760
       1.2116200       75.050000
       1.2120200       74.872338
       1.2124200       74.830605
       1.2128299       75.318185
       1.2132300       75.264574
       1.2136400       75.055113
       1.2140400       75.921404
       1.2144500       75.620185
       1.2148499       75.419402
       1.2152600       76.035182
       1.2156600       75.480006
       1.2160701       76.042112
       1.2164700       76.182470
       1.2168800       75.615106
       1.2172800       76.434469
       1.2176900       76.017746
       1.2180901       76.418942
       1.2185000       76.031596
       1.2189100       76.666420
       1.2193100       75.399263
       1.2197200       76.224377
       1.2201300       75.482114
       1.2205300       77.041235
       1.2209400       76.306671
       1.2213500       76.558205
       1.2217500       75.892425
       1.2221600       77.133681
       1.2225699       76.884696
       1.2229800       76.285906
       1.2233800       76.787336
       1.2237900       77.499817
       1.2242000       77.147429
       1.2246100       77.084272
       1.2250201       77.546260
       1.2254200       76.990570
       1.2258300       77.581897
       1.2262400       77.487338
       1.2266500       77.898682
       1.2270600       77.953145
       1.2274700       74.198529
       1.2278800       78.052928
       1.2282900       78.123001
       1.2287000       78.000282
       1.2291000       77.941399
       1.2295099       78.457764
       1.2299200       78.145854
       1.2303300       78.252111
       1.2307400       78.622953
       1.2311500       78.654175
       1.2315600       78.084665
       1.2319800       78.767357
       1.2323900       78.303605
       1.2328000       78.792556
       1.2332100       78.583051
       1.2336200       78.755567
       1.2340300       78.054382
       1.2344400       77.442998
       1.2348500       78.914213
       1.2352700       79.349394
       1.2356800       78.471429
       1.2360899       77.886170
       1.2365000       77.997733
       1.2369100       78.806653
       1.2373199       79.172856
       1.2377400       79.984063
       1.2381500       79.818865
       1.2385600       79.593572
       1.2389801       79.979440
       1.2393900       78.997796
       1.2398000       78.275207
       1.2402101       79.432420
       1.2406300       79.683416
       1.2410400       79.803377
       1.2414600       80.585116
       1.2418700       79.699756
       1.2422800       79.822708
       1.2427000       78.890827
       1.2431099       80.357182
       1.2435300       78.056611
       1.2439400       80.576408
       1.2443500       81.077639
       1.2447701       80.831193
       1.2451900       80.863278
       1.2456000       81.110267
       1.2460099       80.842315
       1.2464300       81.230257
       1.2468500       81.196806
       1.2472600       80.498703
       1.2476799       81.362135
       1.2480900       81.506156
       1.2485100       81.495224
       1.2489200       81.708300
       1.2493401       81.854241
       1.2497600       81.366864
       1.2501700       81.617284
       1.2505900       81.704356
       1.2510099       82.220449
       1.2514300       80.388923
       1.2518400       80.442771
       1.2522600       80.661004
       1.2526799       79.503306
       1.2530900       81.518455
       1.2535100       81.128294
       1.2539300       82.304110
       1.2543499       82.519745
       1.2547700       82.487984
       1.2551800       82.804939
       1.2556000       82.799375
       1.2560199       81.504557
       1.2564400       82.207288
       1.2568600       82.331867
       1.2572800       82.670270
       1.2577000       82.927551
       1.2581199       83.099068
       1.2585400       82.002052
       1.2589600       83.644557
       1.2593700       82.885314
       1.2597899       83.651797
       1.2602201       83.141548
       1.2606400       83.700509
       1.2610500       83.353422
       1.2614700       83.139202
       1.2618901       82.577916
       1.2623200       83.862266
       1.2627400       84.180287
       1.2631600       83.861520
       1.2635800       84.202520
       1.2640001       82.695207
       1.2644200       83.007053
       1.2648400       84.243110
       1.2652600       82.830341
       1.2656900       84.669912
       1.2661099       84.559298
       1.2665300       84.885518
       1.2669500       84.049407
       1.2673700       84.366216
       1.2678000       85.172262
       1.2682199       82.957790
       1.2686400       84.704231
       1.2690700       85.170605
       1.2694900       85.217010
       1.2699100       84.759591
       1.2703300       85.401989
       1.2707601       85.111271
       1.2711800       84.927028
       1.2716100       85.279610
       1.2720300       85.816531
       1.2724500       85.992982
       1.2728800       85.729711
       1.2733001       85.898912
       1.2737300       85.624961
       1.2741500       85.367350
       1.2745800       85.274143
       1.2750000       86.122466
       1.2754300       86.252114
       1.2758501       86.525251
       1.2762800       86.518825
       1.2767000       86.546244
       1.2771300       86.522218
       1.2775500       86.509037
       1.2779800       86.774478
       1.2783999       86.619466
       1.2788301       87.087187
       1.2792600       86.492279
       1.2796800       86.797041
       1.2801100       86.927746
       1.2805400       87.041761
       1.2809600       85.235647
       1.2813900       85.743348
       1.2818201       84.380967
       1.2822500       80.421778
       1.2826700       83.048263
       1.2831000       86.271634
       1.2835300       86.137808
       1.2839500       87.794085
       1.2843800       86.742863
       1.2848099       88.033853
       1.2852401       86.468670
       1.2856700       88.127293
       1.2861000       88.242306
       1.2865300       88.110031
       1.2869500       88.525775
       1.2873800       88.083931
       1.2878100       88.295515
       1.2882400       86.240028
       1.2886699       88.428284
       1.2891001       88.850502
       1.2895300       88.763159
       1.2899600       88.224532
       1.2903900       84.440388
       1.2908200       88.950493
       1.2912500       87.489934
       1.2916800       89.098440
       1.2921100       89.185735
       1.2925400       88.220684
       1.2929699       89.155341
       1.2934000       89.063569
       1.2938401       87.741768
       1.2942700       89.215838
       1.2947000       89.625020
       1.2951300       89.412002
       1.2955600       89.564882
       1.2959900       89.403338
       1.2964200       89.970120
       1.2968600       89.380474
       1.2972900       89.369949
       1.2977200       89.906328
       1.2981499       87.814681
       1.2985899       90.497378
       1.2990201       90.125248
       1.2994500       90.142006
       1.2998900       90.753807
       1.3003200       90.497873
       1.3007500       90.381134
       1.3011900       90.330436
       1.3016200       90.527782
       1.3020500       90.883959
       1.3024900       90.986073
       1.3029200       91.061680
       1.3033600       90.284758
       1.3037900       90.380543
       1.3042300       90.368127
       1.3046600       91.040280
       1.3050900       91.229863
       1.3055300       91.210877
       1.3059601       91.810999
       1.3063999       91.578587
       1.3068399       90.728647
       1.3072701       91.830421
       1.3077101       91.872290
       1.3081400       91.513855
       1.3085800       92.248898
       1.3090200       91.746945
       1.3094500       92.526222
       1.3098900       91.823046
       1.3103300       91.410694
       1.3107600       92.318767
       1.3112000       92.596740
       1.3116400       92.672667
       1.3120700       92.158105
       1.3125100       86.038815
       1.3129500       92.133012
       1.3133900       92.689405
       1.3138200       91.658778
       1.3142600       93.302572
       1.3147000       92.960943
       1.3151400       92.038497
       1.3155800       86.741913
       1.3160200       92.879104
       1.3164500       93.607644
       1.3168900       93.555822
       1.3173300       93.712123
       1.3177700       94.023863
       1.3182100       91.714322
       1.3186500       93.213145
       1.3190900       94.176442
       1.3195300       93.922912
       1.3199700       93.905282
       1.3204100       92.912968
       1.3208500       94.438288
       1.3212900       94.056040
       1.3217300       92.972321
       1.3221700       94.175793
       1.3226100       94.257147
       1.3230500       94.937741
       1.3234900       94.805563
       1.3239300       94.946842
       1.3243700       95.175561
       1.3248200       95.135737
       1.3252600       94.673094
       1.3257000       95.373789
       1.3261400       95.171170
       1.3265800       94.678521
       1.3270299       94.844951
       1.3274699       95.376619
       1.3279099       95.587660
       1.3283499       93.449889
       1.3288000       95.682486
       1.3292400       91.107745
       1.3296800       92.462353
       1.3301200       96.045767
       1.3305700       95.471464
       1.3310100       95.527396
       1.3314500       96.011458
       1.3319000       96.255800
       1.3323400       90.351176
       1.3327900       96.131754
       1.3332300       96.160810
       1.3336800       96.542322
       1.3341200       96.893372
       1.3345701       96.434635
       1.3350101       96.643263
       1.3354501       95.373285
       1.3358999       97.068311
       1.3363500       97.119988
       1.3367900       97.417180
       1.3372400       97.157786
       1.3376800       97.249239
       1.3381300       97.420388
       1.3385700       97.175086
       1.3390200       96.752898
       1.3394700       93.965324
       1.3399100       96.551936
       1.3403600       97.896512
       1.3408099       97.641809
       1.3412499       97.730800
       1.3417000       98.047910
       1.3421500       96.352089
       1.3425900       98.310754
       1.3430400       98.088645
       1.3434900       98.124699
       1.3439400       98.723425
       1.3443900       98.610805
       1.3448400       98.751348
       1.3452801       98.437505
       1.3457299       98.494066
       1.3461800       98.278606
       1.3466300       98.967961
       1.3470800       99.111111
       1.3475300       99.272966
       1.3479800       98.859383
       1.3484300       99.382736
       1.3488700       99.306277
       1.3493201       99.420059
       1.3497699       97.917098
       1.3502200       97.939128
       1.3506700       99.391352
       1.3511200       99.981463
       1.3515700       100.01620
       1.3520300       99.983963
       1.3524801       99.800069
       1.3529299       100.00812
       1.3533800       100.43926
       1.3538300       100.41201
       1.3542800       100.47371
       1.3547300       100.53454
       1.3551800       98.513693
       1.3556401       99.607888
       1.3560899       100.24644
       1.3565400       100.61683
       1.3569900       97.970084
       1.3574400       100.75362
       1.3579000       100.83340
       1.3583500       101.10573
       1.3588001       101.33350
       1.3592499       99.398921
       1.3597100       101.13959
       1.3601600       101.47578
       1.3606100       97.449164
       1.3610700       101.68536
       1.3615201       101.83529
       1.3619699       101.88611
       1.3624300       101.80548
       1.3628800       98.150925
       1.3633400       101.73310
       1.3637900       102.13216
       1.3642499       102.23580
       1.3647000       99.185603
       1.3651600       102.17221
       1.3656100       102.06324
       1.3660700       102.39095
       1.3665200       102.75945
       1.3669800       100.06605
       1.3674300       102.88315
       1.3678900       102.98536
       1.3683500       102.58093
       1.3688000       100.19869
       1.3692600       102.90753
       1.3697100       102.74603
       1.3701700       102.03784
       1.3706300       103.12269
       1.3710800       103.05007
       1.3715400       102.87360
       1.3720000       103.79028
       1.3724600       102.42928
       1.3729100       102.68047
       1.3733701       102.92723
       1.3738300       102.03301
       1.3742900       104.08803
       1.3747400       103.15386
       1.3752000       104.28365
       1.3756599       103.88978
       1.3761200       101.73478
       1.3765800       104.19042
       1.3770400       104.22677
       1.3775001       104.60314
       1.3779500       103.68877
       1.3784100       104.97623
       1.3788700       104.94701
       1.3793300       104.46817
       1.3797899       105.18293
       1.3802500       104.82227
       1.3807100       105.42395
       1.3811700       105.31866
       1.3816299       105.39447
       1.3820900       104.04359
       1.3825600       105.50983
       1.3830200       104.50864
       1.3834800       105.37476
       1.3839400       105.89073
       1.3844000       106.11110
       1.3848600       105.99518
       1.3853199       101.25287
       1.3857800       106.24376
       1.3862500       106.23014
       1.3867100       102.23747
       1.3871700       106.31842
       1.3876300       106.23127
       1.3881000       106.13354
       1.3885601       106.87066
       1.3890200       106.59503
       1.3894800       106.99593
       1.3899500       103.54087
       1.3904099       107.13523
       1.3908700       106.52585
       1.3913400       105.88485
       1.3918000       106.45279
       1.3922600       106.73906
       1.3927300       106.94101
       1.3931900       107.13805
       1.3936599       107.26756
       1.3941200       107.41867
       1.3945900       107.23789
       1.3950500       107.26420
       1.3955200       106.09559
       1.3959800       108.20266
       1.3964500       107.65025
       1.3969100       107.42766
       1.3973800       108.07856
       1.3978400       107.71956
       1.3983099       107.30523
       1.3987800       108.04588
       1.3992400       108.25498
       1.3997101       106.24540
       1.4001800       104.92613
       1.4006400       107.13896
       1.4011101       105.99931
       1.4015800       108.86812
       1.4020400       109.14111
       1.4025100       109.13050
       1.4029800       107.53708
       1.4034500       108.98735
       1.4039100       109.59308
       1.4043800       107.68991
       1.4048500       109.76432
       1.4053200       109.84649
       1.4057900       109.65421
       1.4062600       108.82082
       1.4067200       107.24285
       1.4071900       107.81580
       1.4076600       108.45200
       1.4081300       109.57437
       1.4086000       107.28911
       1.4090700       109.69362
       1.4095401       109.43833
       1.4100100       109.26393
       1.4104800       109.69409
       1.4109499       109.77139
       1.4114200       109.25344
       1.4118900       108.05881
       1.4123600       107.45633
       1.4128300       107.04641
       1.4133000       104.27672
       1.4137700       110.32294
       1.4142500       108.36288
       1.4147201       110.70961
       1.4151900       108.75392
       1.4156600       111.41281
       1.4161299       106.86120
       1.4166000       110.60018
       1.4170800       109.92795
       1.4175500       111.18440
       1.4180200       110.91358
       1.4184901       107.62780
       1.4189700       110.60857
       1.4194400       108.50007
       1.4199100       111.12680
       1.4203900       108.24171
       1.4208601       108.52900
       1.4213300       111.74541
       1.4218100       110.72626
       1.4222800       110.42844
       1.4227600       107.66759
       1.4232301       110.48845
       1.4237000       111.50132
       1.4241800       104.10398
       1.4246500       112.99763
       1.4251300       110.20928
       1.4256001       108.92320
       1.4260800       110.70831
       1.4265500       109.52374
       1.4270300       113.07281
       1.4275100       106.24209
       1.4279799       113.42038
       1.4284600       112.05423
       1.4289300       108.61449
       1.4294100       107.84771
       1.4298900       110.94541
       1.4303600       110.79921
       1.4308400       114.32178
       1.4313200       107.66873
       1.4317900       112.69468
       1.4322701       112.67019
       1.4327500       112.72197
       1.4332300       114.02069
       1.4337000       113.55163
       1.4341800       112.66129
       1.4346600       113.25617
       1.4351400       114.70340
       1.4356200       111.00597
       1.4360900       114.88564
       1.4365700       114.25644
       1.4370500       116.02052
       1.4375300       111.67630
       1.4380100       113.60183
       1.4384900       115.94452
       1.4389700       114.91669
       1.4394500       114.43332
       1.4399300       113.59084
       1.4404100       105.77664
       1.4408900       113.56872
       1.4413700       116.86499
       1.4418499       112.95564
       1.4423300       114.01703
       1.4428101       114.99480
       1.4432900       114.39714
       1.4437701       114.52018
       1.4442500       112.39567
       1.4447401       111.80236
       1.4452200       117.41995
       1.4457000       117.55524
       1.4461800       113.69877
       1.4466600       112.83516
       1.4471400       116.25037
       1.4476300       118.11269
       1.4481100       115.30704
       1.4485900       114.47467
       1.4490700       114.94127
       1.4495600       116.23982
       1.4500400       115.90049
       1.4505301       113.32094
       1.4510100       116.16796
       1.4514900       111.10554
       1.4519700       118.45562
       1.4524601       118.58207
       1.4529400       113.91699
       1.4534301       115.21092
       1.4539100       117.06787
       1.4543999       116.18224
       1.4548800       112.75751
       1.4553699       116.08017
       1.4558500       112.49743
       1.4563400       117.47086
       1.4568200       114.78689
       1.4573100       117.69253
       1.4577900       116.87895
       1.4582800       117.77936
       1.4587700       118.81309
       1.4592500       117.65551
       1.4597400       116.16195
       1.4602300       116.69031
       1.4607100       113.58273
       1.4612000       117.46687
       1.4616899       118.30049
       1.4621700       116.62571
       1.4626600       118.68306
       1.4631500       115.91864
       1.4636400       118.37911
       1.4641200       118.83068
       1.4646100       118.91182
       1.4651000       117.26826
       1.4655900       111.16303
       1.4660800       115.87980
       1.4665700       120.35643
       1.4670500       118.62561
       1.4675400       120.43905
       1.4680300       118.57903
       1.4685200       116.75526
       1.4690100       120.93658
       1.4694999       118.04158
       1.4699900       119.45528
       1.4704800       115.87997
       1.4709700       120.30056
       1.4714600       116.75056
       1.4719501       118.46079
       1.4724400       116.34479
       1.4729300       121.31621
       1.4734200       120.66689
       1.4739100       120.29242
       1.4744101       117.81046
       1.4749000       120.29896
       1.4753900       116.91057
       1.4758800       119.13749
       1.4763700       123.13900
       1.4768699       120.91991
       1.4773600       118.10185
       1.4778500       121.56435
       1.4783400       119.56877
       1.4788400       121.26397
       1.4793299       122.54543
       1.4798200       121.78174
       1.4803200       122.21413
       1.4808100       120.12825
       1.4813000       120.20425
       1.4818000       121.40346
       1.4822900       123.56401
       1.4827800       122.48464
       1.4832799       118.82148
       1.4837700       120.78132
       1.4842700       121.61865
       1.4847600       122.62340
       1.4852600       121.81695
       1.4857500       124.43548
       1.4862500       122.76004
       1.4867400       120.89926
       1.4872400       121.74937
       1.4877400       120.09180
       1.4882300       99.521970
       1.4887300       122.33743
       1.4892200       124.53675
       1.4897200       125.11962
       1.4902101       122.23853
       1.4907100       120.97599
       1.4912100       122.70189
       1.4917099       121.64246
       1.4922000       125.91056
       1.4927000       126.29329
       1.4931999       124.30022
       1.4937000       124.66729
       1.4941900       123.37641
       1.4946899       126.86298
       1.4951900       122.73035
       1.4956900       126.60095
       1.4961900       118.16039
       1.4966900       127.09301
       1.4971800       123.83931
       1.4976799       125.03680
       1.4981800       125.43457
       1.4986800       122.38522
       1.4991800       124.75296
       1.4996800       128.09160
       1.5001700       126.20296
       1.5006800       124.88878
       1.5011801       126.28841
       1.5016800       124.47064
       1.5021800       123.60969
       1.5026799       110.16780
       1.5031900       120.42010
       1.5036900       126.61413
       1.5041900       118.85638
       1.5046901       119.95432
       1.5051900       115.48091
       1.5056900       121.21776
       1.5061899       127.53826
       1.5067000       126.10953
       1.5072000       128.34937
       1.5077000       128.79429
       1.5082000       122.41679
       1.5087100       129.52896
       1.5092100       128.68686
       1.5097100       125.56564
       1.5102201       124.71135
       1.5107200       128.89186
       1.5112200       128.38921
       1.5117300       129.75153
       1.5122300       125.60732
       1.5127300       125.65393
       1.5132400       128.51981
       1.5137399       127.14365
       1.5142500       126.42211
       1.5147500       126.90297
       1.5152600       129.95433
       1.5157599       129.03392
       1.5162700       126.14571
       1.5167700       127.55973
       1.5172800       128.90317
       1.5177799       131.18154
       1.5182900       128.16896
       1.5188000       128.07042
       1.5193000       129.43754
       1.5198100       129.32084
       1.5203201       127.95092
       1.5208200       131.38444
       1.5213300       125.51795
       1.5218400       131.33878
       1.5223401       123.00408
       1.5228500       130.60402
       1.5233600       128.66194
       1.5238600       132.34780
       1.5243700       130.12094
       1.5248801       128.23056
       1.5253900       130.72494
       1.5259000       131.58625
       1.5264100       129.74061
       1.5269200       128.09362
       1.5274200       132.59263
       1.5279300       133.11979
       1.5284400       130.30992
       1.5289500       130.68271
       1.5294600       132.52722
       1.5299700       120.79917
       1.5304800       132.95089
       1.5309900       132.22012
       1.5315000       133.94866
       1.5320100       129.94095
       1.5325201       133.60299
       1.5330300       132.26029
       1.5335500       133.85001
       1.5340600       127.12604
       1.5345700       130.31508
       1.5350800       132.98052
       1.5355901       132.46899
       1.5361000       133.89960
       1.5366200       132.87041
       1.5371300       135.37549
       1.5376400       133.43985
       1.5381500       129.01579
       1.5386600       133.73124
       1.5391800       132.16016
       1.5396900       130.81185
       1.5402000       129.59153
       1.5407200       134.05323
       1.5412300       133.60099
       1.5417399       135.80189
       1.5422601       133.95947
       1.5427700       131.96346
       1.5432900       133.99118
       1.5438000       133.15856
       1.5443200       135.20066
       1.5448300       135.07141
       1.5453500       135.73804
       1.5458601       136.29657
       1.5463800       134.69448
       1.5468900       135.38261
       1.5474100       135.87451
       1.5479200       135.44144
       1.5484400       135.05923
       1.5489600       136.76561
       1.5494699       135.51063
       1.5499901       134.01002
       1.5505100       134.56018
       1.5510200       136.24849
       1.5515400       135.36051
       1.5520600       137.39593
       1.5525700       137.26435
       1.5530900       137.46967
       1.5536100       131.81527
       1.5541300       134.51061
       1.5546401       131.86033
       1.5551600       137.83666
       1.5556800       134.66591
       1.5562000       128.73403
       1.5567200       136.04865
       1.5572400       136.48074
       1.5577600       135.44361
       1.5582700       136.91423
       1.5587900       136.72749
       1.5593100       134.82906
       1.5598300       133.85908
       1.5603499       139.14859
       1.5608701       138.11143
       1.5614001       138.19779
       1.5619200       138.44696
       1.5624400       132.33276
       1.5629600       139.15863
       1.5634800       132.33756
       1.5640000       139.52387
       1.5645200       138.77993
       1.5650400       136.39145
       1.5655600       137.74991
       1.5660900       139.21236
       1.5666100       135.00238
       1.5671300       139.28204
       1.5676500       135.94943
       1.5681700       137.20957
       1.5687000       138.17437
       1.5692199       137.10411
       1.5697401       133.06675
       1.5702699       136.30348
       1.5707901       138.27284
       1.5713100       139.02259
       1.5718400       137.80465
       1.5723600       139.97508
       1.5728900       134.48351
       1.5734100       140.00763
       1.5739400       141.51535
       1.5744600       130.35617
       1.5749800       139.64756
       1.5755100       129.73619
       1.5760400       140.84243
       1.5765600       141.30395
       1.5770900       122.01326
       1.5776100       131.57798
       1.5781400       138.67881
       1.5786600       141.78910
       1.5791900       137.88860
       1.5797100       142.77513
       1.5802400       139.74955
       1.5807700       142.21526
       1.5813000       141.60618
       1.5818200       142.69943
       1.5823500       132.98485
       1.5828800       137.49421
       1.5834000       142.98388
       1.5839300       134.76160
       1.5844600       142.83859
       1.5849900       142.34322
       1.5855200       141.96283
       1.5860400       142.14430
       1.5865700       139.15772
       1.5871000       137.34386
       1.5876300       140.76441
       1.5881600       134.05315
       1.5886900       133.83068
       1.5892200       124.74672
       1.5897501       133.47695
       1.5902801       138.12617
       1.5908099       134.93259
       1.5913399       137.94602
       1.5918700       141.55818
       1.5924000       141.26518
       1.5929300       145.27139
       1.5934600       141.00010
       1.5939900       144.84644
       1.5945300       140.99163
       1.5950600       145.63592
       1.5955900       144.28453
       1.5961200       139.56497
       1.5966500       135.34425
       1.5971900       141.92175
       1.5977200       145.30964
       1.5982500       140.02339
       1.5987800       141.79339
       1.5993201       144.02400
       1.5998501       145.00301
       1.6003799       145.25677
       1.6009200       138.29847
       1.6014500       141.19793
       1.6019800       143.86615
       1.6025200       144.00351
       1.6030500       145.68464
       1.6035900       146.41795
       1.6041200       143.14409
       1.6046500       138.29314
       1.6051900       145.58843
       1.6057200       144.85570
       1.6062599       139.58673
       1.6068000       144.71378
       1.6073300       143.45084
       1.6078700       143.28715
       1.6084000       145.24599
       1.6089400       146.07978
       1.6094700       145.39150
       1.6100100       138.01723
       1.6105500       138.01305
       1.6110801       140.98120
       1.6116199       140.29703
       1.6121600       142.66284
       1.6127000       144.53435
       1.6132300       143.93982
       1.6137700       146.86429
       1.6143100       143.24637
       1.6148500       147.97567
       1.6153899       142.81795
       1.6159199       135.81212
       1.6164600       147.50348
       1.6170000       141.36921
       1.6175400       148.33493
       1.6180800       146.29678
       1.6186200       144.90388
       1.6191601       140.80934
       1.6197000       143.04658
       1.6202400       138.42533
       1.6207800       142.43508
       1.6213200       143.46439
       1.6218600       142.67419
       1.6224000       147.63600
       1.6229399       143.84188
       1.6234800       144.96467
       1.6240200       144.84251
       1.6245600       143.96293
       1.6251100       146.97307
       1.6256500       147.52216
       1.6261899       146.69280
       1.6267300       148.34764
       1.6272700       148.20163
       1.6278200       148.81097
       1.6283600       149.02262
       1.6289001       148.35543
       1.6294399       148.87825
       1.6299900       146.29412
       1.6305300       148.32792
       1.6310700       149.38211
       1.6316200       145.67486
       1.6321599       145.18101
       1.6327100       146.32742
       1.6332500       150.16954
       1.6338000       144.45932
       1.6343400       149.58988
       1.6348799       148.93687
       1.6354300       148.52695
       1.6359700       147.90948
       1.6365200       150.13256
       1.6370699       138.58664
       1.6376100       149.17672
       1.6381600       148.70580
       1.6387000       134.43874
       1.6392500       147.42524
       1.6398000       142.44706
       1.6403400       138.29912
       1.6408900       137.13600
       1.6414400       138.28568
       1.6419801       142.24003
       1.6425300       147.24433
       1.6430800       148.72057
       1.6436300       148.29319
       1.6441700       144.21807
       1.6447200       140.90779
       1.6452700       147.62396
       1.6458200       143.22180
       1.6463701       150.28928
       1.6469200       148.43346
       1.6474600       147.06198
       1.6480100       147.29455
       1.6485600       148.69397
       1.6491100       142.99248
       1.6496600       147.16542
       1.6502100       149.67725
       1.6507601       150.05617
       1.6513100       148.08478
       1.6518600       149.68247
       1.6524100       147.41506
       1.6529599       145.81428
       1.6535100       150.07567
       1.6540700       144.19176
       1.6546201       147.40460
       1.6551700       146.84608
       1.6557200       148.78704
       1.6562700       147.73647
       1.6568201       145.99539
       1.6573800       148.11486
       1.6579300       149.87907
       1.6584800       146.58789
       1.6590300       147.12127
       1.6595900       148.48088
       1.6601400       149.16312
       1.6606899       149.92260
       1.6612500       148.17567
       1.6618000       146.18514
       1.6623600       145.81651
       1.6629100       147.76441
       1.6634600       144.85971
       1.6640199       148.33143
       1.6645700       147.25377
       1.6651300       143.52678
       1.6656801       144.47159
       1.6662400       148.06682
       1.6667900       144.51247
       1.6673501       148.64013
       1.6679100       146.90026
       1.6684600       143.45828
       1.6690201       148.17736
       1.6695700       149.24759
       1.6701300       149.68299
       1.6706899       148.47695
       1.6712400       146.70556
       1.6718000       147.73549
       1.6723599       140.56069
       1.6729200       147.71635
       1.6734700       147.88662
       1.6740299       148.97787
       1.6745900       149.29560
       1.6751500       148.04816
       1.6757100       137.78619
       1.6762600       148.38363
       1.6768200       144.10705
       1.6773800       149.72338
       1.6779400       148.68988
       1.6785001       147.98424
       1.6790600       147.84956
       1.6796200       145.88883
       1.6801800       144.08204
       1.6807400       139.24815
       1.6813000       135.96862
       1.6818600       142.02006
       1.6824200       142.58088
       1.6829799       145.50321
       1.6835400       146.29819
       1.6841000       146.52620
       1.6846600       146.96316
       1.6852300       148.61246
       1.6857899       148.54946
       1.6863500       144.11862
       1.6869100       146.54017
       1.6874700       146.62638
       1.6880400       147.15509
       1.6885999       147.68724
       1.6891600       147.28820
       1.6897300       143.58636
       1.6902900       147.85218
       1.6908500       143.36973
       1.6914200       148.34176
       1.6919800       148.52493
       1.6925400       149.36378
       1.6931100       147.41881
       1.6936700       148.53430
       1.6942400       149.18470
       1.6948000       149.14158
       1.6953700       148.38262
       1.6959300       148.80670
       1.6964999       148.05680
       1.6970600       148.50656
       1.6976300       145.38547
       1.6981900       148.04106
       1.6987600       146.71704
       1.6993300       147.85581
       1.6998900       142.97816
       1.7004600       146.43318
       1.7010300       143.27293
       1.7015899       143.42055
       1.7021600       147.99020
       1.7027299       146.88283
       1.7032900       147.86897
       1.7038600       147.66755
       1.7044300       148.69858
       1.7050000       148.05354
       1.7055700       147.21465
       1.7061400       148.55342
       1.7067000       144.96177
       1.7072700       145.39776
       1.7078400       146.43063
       1.7084100       148.07343
       1.7089800       147.08298
       1.7095500       147.41391
       1.7101200       146.66920
       1.7106900       145.25336
       1.7112600       128.99679
       1.7118300       147.24151
       1.7124000       146.49734
       1.7129700       148.10508
       1.7135400       147.50696
       1.7141200       147.40464
       1.7146900       148.61484
       1.7152600       148.61316
       1.7158300       147.39038
       1.7164000       144.25448
       1.7169700       148.33374
       1.7175500       147.45289
       1.7181200       147.77844
       1.7186900       147.41774
       1.7192600       148.09063
       1.7198400       147.13936
       1.7204100       147.60715
       1.7209899       143.69315
       1.7215600       148.06982
       1.7221299       147.91947
       1.7227100       147.16026
       1.7232800       139.74914
       1.7238600       145.81699
       1.7244300       146.76429
       1.7250000       146.61538
       1.7255800       146.88128
       1.7261600       147.27119
       1.7267300       147.39963
       1.7273099       147.18702
       1.7278800       145.86337
       1.7284600       145.44437
       1.7290300       146.38789
       1.7296100       147.80606
       1.7301900       146.70530
       1.7307600       143.28627
       1.7313401       145.97859
       1.7319200       145.69334
       1.7324899       146.86676
       1.7330700       135.39712
       1.7336500       145.30572
       1.7342300       140.94334
       1.7348100       145.93202
       1.7353801       142.97249
       1.7359600       140.13373
       1.7365400       131.42801
       1.7371200       137.17493
       1.7377000       142.40129
       1.7382801       143.99019
       1.7388600       145.59882
       1.7394400       144.50026
       1.7400200       146.57200
       1.7406000       145.64447
       1.7411799       139.92664
       1.7417600       145.96237
       1.7423400       144.57623
       1.7429200       145.39145
       1.7435000       145.84302
       1.7440799       146.58303
       1.7446600       147.54145
       1.7452400       144.88491
       1.7458200       145.15643
       1.7464100       146.41601
       1.7469900       138.73599
       1.7475700       146.12064
       1.7481600       146.81053
       1.7487400       147.35492
       1.7493200       147.30280
       1.7499000       145.54201
       1.7504900       145.23775
       1.7510700       144.74197
       1.7516500       146.45278
       1.7522399       146.55715
       1.7528200       145.98277
       1.7534100       146.22319
       1.7539901       145.81483
       1.7545700       145.46815
       1.7551600       144.90557
       1.7557400       145.42952
       1.7563300       146.42352
       1.7569200       145.50535
       1.7575001       146.67308
       1.7580900       146.65721
       1.7586700       145.04590
       1.7592601       146.03760
       1.7598500       146.19480
       1.7604300       145.20367
       1.7610199       143.93060
       1.7616100       145.07950
       1.7621900       139.97517
       1.7627800       143.43350
       1.7633700       146.97898
       1.7639600       144.75850
       1.7645400       142.77247
       1.7651300       145.73900
       1.7657200       146.86387
       1.7663100       145.05351
       1.7668999       144.23456
       1.7674900       145.28003
       1.7680800       144.86128
       1.7686700       141.34933
       1.7692600       146.02771
       1.7698500       144.23161
       1.7704300       145.85615
       1.7710299       144.17646
       1.7716200       143.47142
       1.7722000       144.83177
       1.7728000       140.63113
       1.7733901       144.85593
       1.7739800       144.75142
       1.7745700       145.56638
       1.7751600       144.09779
       1.7757500       144.28628
       1.7763500       145.02100
       1.7769400       143.25973
       1.7775300       140.82120
       1.7781200       144.79236
       1.7787200       143.60506
       1.7793100       144.27839
       1.7799000       145.44604
       1.7805001       144.96211
       1.7810900       145.62746
       1.7816800       143.85847
       1.7822700       145.06474
       1.7828701       142.79628
       1.7834600       144.91337
       1.7840600       143.69591
       1.7846500       143.60773
       1.7852499       142.12204
       1.7858400       143.96803
       1.7864400       143.50383
       1.7870300       144.50599
       1.7876300       144.18784
       1.7882299       145.50708
       1.7888200       145.36214
       1.7894200       145.42891
       1.7900100       145.57926
       1.7906100       145.22287
       1.7912101       145.12179
       1.7918000       144.75612
       1.7924000       145.06663
       1.7930000       144.23966
       1.7936000       140.73527
       1.7941999       141.12008
       1.7947900       144.53986
       1.7953900       145.30480
       1.7959900       145.14608
       1.7965900       145.44375
       1.7971900       143.82871
       1.7977901       144.75811
       1.7983800       144.34434
       1.7989800       144.14578
       1.7995800       144.57454
       1.8001800       144.84187
       1.8007801       142.68639
       1.8013800       144.18664
       1.8019800       143.53377
       1.8025900       142.64319
       1.8031900       140.35300
       1.8037900       143.79143
       1.8043900       143.53590
       1.8049901       144.05294
       1.8055900       141.38406
       1.8062000       144.78135
       1.8068000       143.16754
       1.8074000       144.09020
       1.8080000       143.88369
       1.8085999       142.62087
       1.8092099       144.36047
       1.8098100       143.30050
       1.8104100       141.27774
       1.8110200       142.63466
       1.8116200       142.77543
       1.8122200       142.86001
       1.8128300       144.36153
       1.8134300       143.63146
       1.8140399       143.77029
       1.8146400       143.31235
       1.8152500       143.94169
       1.8158500       138.22688
       1.8164600       140.69928
       1.8170600       137.95969
       1.8176700       128.09798
       1.8182700       132.11227
       1.8188800       138.90029
       1.8194900       141.07631
       1.8200901       142.81841
       1.8207000       143.55552
       1.8213100       144.08719
       1.8219100       143.33165
       1.8225200       142.07566
       1.8231300       140.64242
       1.8237400       143.05493
       1.8243400       143.67975
       1.8249500       144.31146
       1.8255600       142.86042
       1.8261700       143.90345
       1.8267800       143.52194
       1.8273900       143.58361
       1.8279999       142.18775
       1.8286099       141.51925
       1.8292100       140.14827
       1.8298200       142.84691
       1.8304300       142.21275
       1.8310400       143.02218
       1.8316500       143.81059
       1.8322700       141.78856
       1.8328800       143.13914
       1.8334900       144.08214
       1.8341000       143.73439
       1.8347100       142.03042
       1.8353200       142.62884
       1.8359300       142.45960
       1.8365400       141.92650
       1.8371600       141.44442
       1.8377700       138.11212
       1.8383800       142.42443
       1.8390000       143.68637
       1.8396100       141.35349
       1.8402200       140.10890
       1.8408300       143.29615
       1.8414500       141.64000
       1.8420600       137.63131
       1.8426700       135.13829
       1.8432900       141.02038
       1.8439000       142.10242
       1.8445200       142.40429
       1.8451300       140.23442
       1.8457500       143.25450
       1.8463600       143.25931
       1.8469800       133.88224
       1.8475900       140.56977
       1.8482100       142.25003
       1.8488300       142.99209
       1.8494400       142.15162
       1.8500600       141.89206
       1.8506800       142.98662
       1.8512900       142.60968
       1.8519100       141.43638
       1.8525300       140.21070
       1.8531500       137.98811
       1.8537600       142.45246
       1.8543800       142.74650
       1.8550000       142.15818
       1.8556200       138.98765
       1.8562400       136.89195
       1.8568500       142.40629
       1.8574700       142.57602
       1.8580900       140.56883
       1.8587101       137.57912
       1.8593301       142.67324
       1.8599499       141.73363
       1.8605700       142.16574
       1.8611900       141.67855
       1.8618100       141.09974
       1.8624300       141.48962
       1.8630500       140.29122
       1.8636700       141.51094
       1.8643000       140.26910
       1.8649200       142.46900
       1.8655400       141.44963
       1.8661600       137.88994
       1.8667800       140.38005
       1.8674099       142.04395
       1.8680300       140.77856
       1.8686500       141.25641
       1.8692700       141.95553
       1.8699000       140.81379
       1.8705200       141.47921
       1.8711400       141.82654
       1.8717700       139.56517
       1.8723900       140.81761
       1.8730201       134.63290
       1.8736399       140.14395
       1.8742599       137.29983
       1.8748900       132.75214
       1.8755100       113.97294
       1.8761400       131.50380
       1.8767600       136.62225
       1.8773900       139.02964
       1.8780200       135.61342
       1.8786401       140.47417
       1.8792700       140.53860
       1.8798900       140.33791
       1.8805200       141.23082
       1.8811500       141.32274
       1.8817700       141.42821
       1.8824000       139.14608
       1.8830301       141.33754
       1.8836600       141.04128
       1.8842800       140.95406
       1.8849100       139.22456
       1.8855400       140.18401
       1.8861700       133.13870
       1.8868001       140.04634
       1.8874300       140.66715
       1.8880600       138.20435
       1.8886900       138.38018
       1.8893100       137.14476
       1.8899400       138.81457
       1.8905700       134.54425
       1.8911999       137.91970
       1.8918300       137.40076
       1.8924700       135.92131
       1.8931000       138.03281
       1.8937300       138.25834
       1.8943599       139.68101
       1.8949900       136.93385
       1.8956200       139.99556
       1.8962600       137.69595
       1.8968900       138.54819
       1.8975199       137.74344
       1.8981500       140.15953
       1.8987800       140.37885
       1.8994200       134.79211
       1.9000500       140.68752
       1.9006799       139.24864
       1.9013200       139.70041
       1.9019500       140.52070
       1.9025900       139.98905
       1.9032201       140.06689
       1.9038500       136.72417
       1.9044900       139.29934
       1.9051200       137.17906
       1.9057600       139.17303
       1.9063900       139.56608
       1.9070300       140.25534
       1.9076700       140.22289
       1.9083000       139.00297
       1.9089400       137.49284
       1.9095700       140.08881
       1.9102100       139.52867
       1.9108500       139.07735
       1.9114799       139.69543
       1.9121200       134.76088
       1.9127600       137.19078
       1.9133900       139.63684
       1.9140300       139.61721
       1.9146700       138.29424
       1.9153100       139.41115
       1.9159499       138.30454
       1.9165900       139.04098
       1.9172300       139.70884
       1.9178600       138.73054
       1.9184999       139.68693
       1.9191400       139.63236
       1.9197800       132.83441
       1.9204201       139.22644
       1.9210600       138.51302
       1.9217000       137.28653
       1.9223400       138.22240
       1.9229800       139.47619
       1.9236300       139.23131
       1.9242700       139.07405
       1.9249099       138.56363
       1.9255500       139.05421
       1.9261900       136.31832
       1.9268301       137.42846
       1.9274700       137.96576
       1.9281200       138.84070
       1.9287601       135.06236
       1.9294000       138.48474
       1.9300500       138.71615
       1.9306901       138.19158
       1.9313300       130.64578
       1.9319800       138.61805
       1.9326200       138.39805
       1.9332700       138.25767
       1.9339100       136.13999
       1.9345599       134.74713
       1.9352000       137.89002
       1.9358500       138.28656
       1.9364901       139.02843
       1.9371400       138.51433
       1.9377800       138.89978
       1.9384300       138.23472
       1.9390700       135.03390
       1.9397200       136.28470
       1.9403700       138.36505
       1.9410100       136.49697
       1.9416600       137.27495
       1.9423100       137.79564
       1.9429500       134.77498
       1.9436001       129.28240
       1.9442500       132.04236
       1.9449000       122.15574
       1.9455500       121.10331
       1.9461900       133.24039
       1.9468400       135.16622
       1.9474900       134.30664
       1.9481400       136.99105
       1.9487900       134.58324
       1.9494400       136.55198
       1.9500901       133.49259
       1.9507400       136.83058
       1.9513900       123.20555
       1.9520400       137.38838
       1.9526900       137.80796
       1.9533401       137.91072
       1.9539900       136.02550
       1.9546500       135.09297
       1.9553000       137.62835
       1.9559500       137.65644
       1.9566000       137.74438
       1.9572500       137.47206
       1.9579099       137.44870
       1.9585600       135.85263
       1.9592100       136.27712
       1.9598600       135.63227
       1.9605200       135.41748
       1.9611700       137.10561
       1.9618200       132.96915
       1.9624799       137.38318
       1.9631300       132.50350
       1.9637901       132.93501
       1.9644400       135.90804
       1.9651000       137.28079
       1.9657500       137.21479
       1.9664100       137.02872
       1.9670600       137.10288
       1.9677200       136.72924
       1.9683700       136.82186
       1.9690300       136.42025
       1.9696900       136.86259
       1.9703400       136.72413
       1.9710000       136.83629
       1.9716600       136.29593
       1.9723099       135.75101
       1.9729700       128.52426
       1.9736300       133.75394
       1.9742900       135.29595
       1.9749399       136.00171
       1.9756000       135.80292
       1.9762599       136.16548
       1.9769200       135.92560
       1.9775800       135.85942
       1.9782400       123.44256
       1.9789000       135.95552
       1.9795600       132.47036
       1.9802200       136.31255
       1.9808800       135.37429
       1.9815400       136.15020
       1.9822000       134.70663
       1.9828600       136.15073
       1.9835200       136.02754
       1.9841800       136.43488
       1.9848400       135.88599
       1.9855000       132.06596
       1.9861701       129.88737
       1.9868300       128.75329
       1.9874901       135.47832
       1.9881500       135.27114
       1.9888200       134.84164
       1.9894800       135.70277
       1.9901400       135.45307
       1.9908100       135.21490
       1.9914700       135.31943
       1.9921300       132.10577
       1.9928000       134.55968
       1.9934601       132.03215
       1.9941300       131.09821
       1.9947900       135.02249
       1.9954500       133.76491
       1.9961200       135.06303
       1.9967901       131.70999
       1.9974500       133.01943
       1.9981200       132.04615
       1.9987800       135.03481
       1.9994500       134.99130
       2.0000899       135.22159
       2.0007801       134.76232
       2.0014501       134.32589
       2.0021200       135.34954
       2.0027800       131.74784
       2.0034499       133.86147
       2.0041201       133.44226
       2.0047901       134.93428
       2.0054600       132.61801
       2.0061200       132.41351
       2.0067899       134.81672
       2.0074601       133.13133
       2.0081301       134.73193
       2.0088000       134.04143
       2.0094700       132.53632
       2.0101399       134.21599
       2.0108099       134.58479
       2.0114801       134.17491
       2.0121500       134.47334
       2.0128200       134.37414
       2.0134900       133.86085
       2.0141599       132.64896
       2.0148301       133.97769
       2.0155101       133.85928
       2.0161800       134.06153
       2.0168500       134.01844
       2.0175200       133.85434
       2.0181899       133.56007
       2.0188701       133.67299
       2.0195401       132.94239
       2.0202100       133.05967
       2.0208900       131.24412
       2.0215600       130.91761
       2.0222299       133.26467
       2.0229101       133.76416
       2.0235801       131.75042
       2.0242600       132.09105
       2.0249300       133.18628
       2.0256100       133.22971
       2.0262799       133.55942
       2.0269599       131.80096
       2.0276301       132.81888
       2.0283101       132.60779
       2.0289800       131.03206
       2.0296600       132.41448
       2.0303400       129.94558
       2.0310199       130.22866
       2.0316899       133.46015
       2.0323701       132.96380
       2.0330501       133.05076
       2.0337200       132.50584
       2.0344000       132.52369
       2.0350800       128.94913
       2.0357599       130.95023
       2.0364399       132.98362
       2.0371201       132.14769
       2.0377901       131.14698
       2.0384700       128.06245
       2.0391500       132.87573
       2.0398300       132.86252
       2.0405099       131.83636
       2.0411899       131.92985
       2.0418701       129.79316
       2.0425501       132.46230
       2.0432401       132.15657
       2.0439200       133.02532
       2.0446000       132.23733
       2.0452800       132.01333
       2.0459599       131.75330
       2.0466399       132.63694
       2.0473299       131.59938
       2.0480101       131.98584
       2.0486901       132.47550
       2.0493701       132.47442
       2.0500600       132.24015
       2.0507400       132.17006
       2.0514200       131.61803
       2.0521100       131.76993
       2.0527899       129.08209
       2.0534799       131.94431
       2.0541601       130.45163
       2.0548401       131.49956
       2.0555301       131.83573
       2.0562201       130.97758
       2.0569000       131.31372
       2.0575900       131.30155
       2.0582700       131.28980
       2.0589600       129.30106
       2.0596399       131.26244
       2.0603299       129.85798
       2.0610199       127.00743
       2.0617099       131.58600
       2.0623901       130.83349
       2.0630801       131.45487
       2.0637701       117.84594
       2.0644500       131.29650
       2.0651400       130.73669
       2.0658300       131.68417
       2.0665200       131.40057
       2.0672100       129.94319
       2.0678999       128.09674
       2.0685899       130.00961
       2.0692799       131.25741
       2.0699699       129.76942
       2.0706601       126.03190
       2.0713501       130.31396
       2.0720401       128.24701
       2.0727301       130.52013
       2.0734200       130.83593
       2.0741100       128.61449
       2.0748000       130.36593
       2.0754900       130.43733
       2.0761800       129.84643
       2.0768800       129.02740
       2.0775700       127.52106
       2.0782599       130.51332
       2.0789599       130.92597
       2.0796499       129.97031
       2.0803399       128.65208
       2.0810299       129.55917
       2.0817299       130.14957
       2.0824201       129.71072
       2.0831201       128.72312
       2.0838101       127.63263
       2.0845101       127.15846
       2.0852001       128.91015
       2.0858901       129.43884
       2.0865901       129.87675
       2.0872900       129.38574
       2.0879800       129.28968
       2.0886800       129.01970
       2.0893700       129.67621
       2.0900700       129.14571
       2.0907700       129.37851
       2.0914600       129.77613
       2.0921600       124.27102
       2.0928600       129.30986
       2.0935600       129.69802
       2.0942500       128.79315
       2.0949500       129.86735
       2.0956500       128.87338
       2.0963500       128.94059
       2.0970500       128.06753
       2.0977499       128.09048
       2.0984499       129.63677
       2.0991399       128.18994
       2.0998399       128.38474
       2.1005399       129.73325
       2.1012399       127.60279
       2.1019399       128.50170
       2.1026499       128.03158
       2.1033499       129.39914
       2.1040499       129.62262
       2.1047499       128.87199
       2.1054499       129.43996
       2.1061499       128.91634
       2.1068499       128.22900
       2.1075599       127.09217
       2.1082599       128.35409
       2.1089599       128.27361
       2.1096699       125.25058
       2.1103699       128.55821
       2.1110699       128.44412
       2.1117799       128.23113
       2.1124799       128.72029
       2.1131799       127.35758
       2.1138899       128.68200
       2.1145899       127.30868
       2.1152999       128.26367
       2.1159999       128.29509
       2.1167099       123.44274
       2.1174099       128.19788
       2.1181200       127.04684
       2.1188300       128.29578
       2.1195300       125.52928
       2.1202400       126.50659
       2.1209400       127.58078
       2.1216500       127.03691
       2.1223600       127.63708
       2.1230700       126.47152
       2.1237800       124.93026
       2.1244800       126.56602
       2.1251900       127.50925
       2.1259000       128.01279
       2.1266100       126.60655
       2.1273201       127.81965
       2.1280301       126.30252
       2.1287401       127.31963
       2.1294401       127.31224
       2.1301501       127.47239
       2.1308601       127.83898
       2.1315701       127.57879
       2.1322899       126.64463
       2.1329999       127.56315
       2.1337099       127.46859
       2.1344199       126.73090
       2.1351299       127.45731
       2.1358399       122.46360
       2.1365499       127.72206
       2.1372700       127.39533
       2.1379800       127.16129
       2.1386900       127.02254
       2.1394000       126.65305
       2.1401200       126.74036
       2.1408300       127.12054
       2.1415401       126.85890
       2.1422601       127.28090
       2.1429701       127.17429
       2.1436901       125.96467
       2.1443999       126.27677
       2.1451199       126.70908
       2.1458299       125.39168
       2.1465399       125.69815
       2.1472600       126.69992
       2.1479800       126.75857
       2.1486900       126.41599
       2.1494100       125.48314
       2.1501200       126.56960
       2.1508400       126.70548
       2.1515601       126.48316
       2.1522801       126.40591
       2.1529901       125.37423
       2.1537099       125.69675
       2.1544299       125.34628
       2.1551499       125.84000
       2.1558700       126.19547
       2.1565800       126.14530
       2.1573000       125.62147
       2.1580200       126.15210
       2.1587400       125.83607
       2.1594601       125.37674
       2.1601801       125.11329
       2.1609001       125.90708
       2.1616199       124.77618
       2.1623399       125.24701
       2.1630599       125.16763
       2.1637800       124.81972
       2.1645100       123.21976
       2.1652300       120.48541
       2.1659501       112.19042
       2.1666701       119.07689
       2.1673901       121.78119
       2.1681199       122.66368
       2.1688399       124.51997
       2.1695600       124.18101
       2.1702800       124.45591
       2.1710100       124.71537
       2.1717300       124.61439
       2.1724601       125.22780
       2.1731801       125.03120
       2.1738999       124.61113
       2.1746299       124.45599
       2.1753500       124.29582
       2.1760800       124.00941
       2.1768000       122.88750
       2.1775301       124.75518
       2.1782601       120.01600
       2.1789801       122.15431
       2.1797099       123.73691
       2.1804299       125.00555
       2.1811600       124.64326
       2.1818900       124.47022
       2.1826100       120.45078
       2.1833401       124.52010
       2.1840701       124.51725
       2.1847999       124.68086
       2.1855299       124.07955
       2.1862500       124.38165
       2.1869800       124.25252
       2.1877100       123.02958
       2.1884401       119.19521
       2.1891699       124.32756
       2.1898999       122.63963
       2.1906300       122.28292
       2.1913600       123.85687
       2.1920900       124.36979
       2.1928201       124.27910
       2.1935501       123.96419
       2.1942799       123.69521
       2.1950200       123.01972
       2.1957500       123.76551
       2.1964800       123.99788
       2.1972101       123.83906
       2.1979401       123.42183
       2.1986799       123.60231
       2.1994100       124.02953
       2.2001400       122.97287
       2.2008801       122.63200
       2.2016101       123.17580
       2.2023399       123.28663
       2.2030799       123.52079
       2.2038100       123.05791
       2.2045500       122.73695
       2.2052801       123.21896
       2.2060201       118.03413
       2.2067499       117.85332
       2.2074900       122.31703
       2.2082200       122.77630
       2.2089601       119.36862
       2.2097001       122.97848
       2.2104299       122.76933
       2.2111700       122.73092
       2.2119100       122.47078
       2.2126400       122.94557
       2.2133801       123.06895
       2.2141199       122.89315
       2.2148600       122.65091
       2.2156000       122.78150
       2.2163301       122.05226
       2.2170701       122.34425
       2.2178099       122.71423
       2.2185500       122.48583
       2.2192900       122.81247
       2.2200301       122.39952
       2.2207699       122.56134
       2.2215099       121.50004
       2.2222500       122.45604
       2.2229900       122.44031
       2.2237301       121.46460
       2.2244699       122.10306
       2.2252200       122.27849
       2.2259600       120.51391
       2.2267001       119.89088
       2.2274401       122.09373
       2.2281799       119.55641
       2.2289300       122.04876
       2.2296700       121.94507
       2.2304101       121.10812
       2.2311599       121.65401
       2.2319000       121.58612
       2.2326500       121.73779
       2.2333901       121.91140
       2.2341299       121.62107
       2.2348800       121.35405
       2.2356200       121.73791
       2.2363701       121.68637
       2.2371099       121.72268
       2.2378600       121.15367
       2.2386000       118.74441
       2.2393501       120.64351
       2.2400999       119.92059
       2.2408400       121.43115
       2.2415900       121.31474
       2.2423401       119.76423
       2.2430899       120.90748
       2.2438300       121.22792
       2.2445800       120.72348
       2.2453301       120.96811
       2.2460799       120.92670
       2.2468300       120.98072
       2.2475801       119.10282
       2.2483201       119.93018
       2.2490699       120.97909
       2.2498200       120.60876
       2.2505701       120.90133
       2.2513199       120.20786
       2.2520700       120.60260
       2.2528300       120.49806
       2.2535801       120.40711
       2.2543299       116.48865
       2.2550800       120.22970
       2.2558300       119.92626
       2.2565801       120.65023
       2.2573299       119.65351
       2.2580900       119.96047
       2.2588401       120.63345
       2.2595899       120.31967
       2.2603500       120.30748
       2.2611001       119.44109
       2.2618501       119.50185
       2.2626100       116.81550
       2.2633600       118.32657
       2.2641201       120.03317
       2.2648699       119.83539
       2.2656200       118.11526
       2.2663801       119.72094
       2.2671399       119.62007
       2.2678900       119.66798
       2.2686501       119.88470
       2.2693999       119.60826
       2.2701600       119.34369
       2.2709200       119.68727
       2.2716701       118.07414
       2.2724299       119.59442
       2.2731900       119.59668
       2.2739501       119.47757
       2.2746999       117.67196
       2.2754600       118.98382
       2.2762201       119.07073
       2.2769799       119.02342
       2.2777400       119.39725
       2.2785001       119.00835
       2.2792599       118.96073
       2.2800200       118.44995
       2.2807801       118.83493
       2.2815399       111.46792
       2.2823000       118.82943
       2.2830601       117.55965
       2.2838199       117.92324
       2.2845800       118.86095
       2.2853401       118.21515
       2.2860999       118.29918
       2.2868700       118.49543
       2.2876301       118.38392
       2.2883899       118.52650
       2.2891500       118.32161
       2.2899201       118.66194
       2.2906799       118.72177
       2.2914400       118.06257
       2.2922101       118.34937
       2.2929699       118.37519
       2.2937400       93.548049
       2.2945001       103.25487
       2.2952700       107.28158
       2.2960300       106.83474
       2.2967999       109.75896
       2.2975600       107.60260
       2.2983301       112.88819
       2.2990899       112.43267
       2.2998600       113.02022
       2.3006301       112.83835
       2.3013899       113.53089
       2.3021600       114.33310
       2.3029301       114.23917
       2.3037000       113.35430
       2.3044600       113.92126
       2.3052299       116.22293
       2.3060000       113.27586
       2.3067701       113.25653
       2.3075399       114.33076
       2.3083100       116.43447
       2.3090799       113.21823
       2.3098500       114.06046
       2.3106201       116.51551
       2.3113899       113.21750
       2.3121600       114.07233
       2.3129301       116.52900
       2.3137000       114.10229
       2.3144701       116.31302
       2.3152399       111.44486
       2.3160100       113.74063
       2.3167801       114.94928
       2.3175600       114.01103
       2.3183300       115.84015
       2.3190999       112.97255
       2.3198800       116.37672
       2.3206501       113.84533
       2.3214200       116.47337
       2.3222001       113.77572
       2.3229699       86.972745
       2.3237400       98.251614
       2.3245201       103.95873
       2.3252900       104.99253
       2.3260701       106.74857
       2.3268499       110.02600
       2.3276200       108.53475
       2.3283999       105.52544
       2.3291700       109.60191
       2.3299501       108.74907
       2.3307300       111.22838
       2.3315001       112.13278
       2.3322799       111.62591
       2.3330600       110.71582
       2.3338301       108.72237
       2.3346100       112.37223
       2.3353901       109.57495
       2.3361700       113.07525
       2.3369501       110.84723
       2.3377299       108.80792
       2.3385100       111.57568
       2.3392799       109.10608
       2.3400600       111.92488
       2.3408401       114.30155
       2.3416200       109.41232
       2.3424101       112.25211
       2.3431900       113.43665
       2.3439701       112.02378
       2.3447499       113.17106
       2.3455300       109.86227
       2.3463099       114.65820
       2.3470900       110.80669
       2.3478799       111.22201
       2.3486600       113.50981
       2.3494401       110.40553
       2.3502300       113.76514
       2.3510101       111.56954
       2.3517900       112.88594
       2.3525801       87.585806
       2.3533599       96.640181
       2.3541501       98.444202
       2.3549299       106.41604
       2.3557100       102.54872
       2.3564999       105.52771
       2.3572900       106.40047
       2.3580699       103.91747
       2.3588600       108.88511
       2.3596399       106.48775
       2.3604300       107.59971
       2.3612199       106.33948
       2.3620000       112.38857
       2.3627901       105.96277
       2.3635800       108.67415
       2.3643701       108.84349
       2.3651600       105.45320
       2.3659401       113.34096
       2.3667300       106.76246
       2.3675201       110.18163
       2.3683100       111.05810
       2.3691001       108.16977
       2.3698900       107.99237
       2.3706801       109.66882
       2.3714700       109.43670
       2.3722601       108.95027
       2.3730500       109.15259
       2.3738401       107.45465
       2.3746300       107.36039
       2.3754301       106.19312
       2.3762200       110.05925
       2.3770101       112.05849
       2.3778000       109.85509
       2.3785901       109.64005
       2.3793900       108.53256
       2.3801799       112.30594
       2.3809700       106.41696
       2.3817699       111.93470
       2.3825600       107.94373
       2.3833599       82.901460
       2.3841500       96.044119
       2.3849399       100.82770
       2.3857400       100.16175
       2.3865299       99.541925
       2.3873301       104.57054
       2.3881199       103.78512
       2.3889201       105.84815
       2.3897200       103.80687
       2.3905201       105.19493
       2.3913100       105.16861
       2.3921101       106.34426
       2.3929100       102.30532
       2.3936999       107.92785
       2.3945000       105.27689
       2.3952999       105.99462
       2.3961000       108.05805
       2.3968999       106.29661
       2.3977001       102.45478
       2.3984900       110.31462
       2.3992901       108.03352
       2.4000900       104.84737
       2.4008901       106.64360
       2.4016900       108.63890
       2.4024899       108.02277
       2.4033000       108.51218
       2.4040999       104.26983
       2.4049001       110.46921
       2.4057000       104.60046
       2.4065001       111.55914
       2.4073000       105.46775
       2.4081099       105.77576
       2.4089100       109.52254
       2.4097099       108.60928
       2.4105201       108.78666
       2.4113200       105.03582
       2.4121201       110.34592
       2.4129300       108.73557
       2.4137299       102.47159
       2.4145401       84.843998
       2.4153399       99.183810
       2.4161501       94.864722
       2.4169500       99.459932
       2.4177599       104.78263
       2.4185600       102.55654
       2.4193699       101.01616
       2.4201701       101.32363
       2.4209800       105.29520
       2.4217899       104.85113
       2.4226000       103.32280
       2.4233999       102.84038
       2.4242101       106.36703
       2.4250200       106.30536
       2.4258299       101.60165
       2.4266400       104.07328
       2.4274499       106.53804
       2.4282501       102.90048
       2.4290600       105.70740
       2.4298699       103.87254
       2.4306800       107.80662
       2.4314899       102.29458
       2.4323001       106.99785
       2.4331200       109.74276
       2.4339299       101.24538
       2.4347401       106.20147
       2.4355500       104.05173
       2.4363599       104.32999
       2.4371700       107.27621
       2.4379799       101.60571
       2.4388001       107.07051
       2.4396100       106.57928
       2.4404199       106.40995
       2.4412401       103.70427
       2.4420500       106.55486
       2.4428699       106.11457
       2.4436800       109.44182
       2.4444900       98.688699
       2.4453101       109.34878
       2.4461200       92.813490
       2.4469399       96.269757
       2.4477501       90.989863
       2.4485700       103.37356
       2.4493899       98.094479
       2.4502001       101.63392
       2.4510200       99.829998
       2.4518399       98.471097
       2.4526501       104.73588
       2.4534700       100.96181
       2.4542899       100.68590
       2.4551101       104.28725
       2.4559300       102.03459
       2.4567399       98.919851
       2.4575601       98.783089
       2.4583800       105.14214
       2.4591999       101.48438
       2.4600201       104.69283
       2.4608400       102.65942
       2.4616599       106.06474
       2.4624801       102.82873
       2.4633000       103.61376
       2.4641199       105.90733
       2.4649501       102.51069
       2.4657700       103.07642
       2.4665899       107.36003
       2.4674101       102.54150
       2.4682300       102.81591
       2.4690599       104.74315
       2.4698801       101.55615
       2.4707000       105.21868
       2.4715300       102.80027
       2.4723499       102.42430
       2.4731700       101.96698
       2.4740000       105.90129
       2.4748299       103.44622
       2.4756501       101.75064
       2.4764700       101.13377
       2.4772999       107.75586
       2.4781301       105.29679
       2.4789500       89.973153
       2.4797800       96.179350
       2.4806001       97.966343
       2.4814301       98.718298
       2.4822600       95.003190
       2.4830899       96.903093
       2.4839101       102.25408
       2.4847400       102.89640
       2.4855700       98.457916
       2.4863999       96.290090
       2.4872301       97.128410
       2.4880600       100.67643
       2.4888899       100.86330
       2.4897201       100.95513
       2.4905500       104.36269
       2.4913800       97.783408
       2.4922099       102.33557
       2.4930401       98.669819
       2.4938700       105.56451
       2.4947000       98.543699
       2.4955299       103.17197
       2.4963601       99.359485
       2.4971900       102.79785
       2.4980299       100.79789
       2.4988599       102.74582
       2.4996600       100.57214
       2.5005200       100.19181
       2.5013599       101.07118
       2.5021901       103.29393
       2.5030200       100.82177
       2.5038600       101.17743
       2.5046999       100.98345
       2.5055301       102.03775
       2.5063601       105.10331
       2.5072000       101.43132
       2.5080400       99.691016
       2.5088699       99.783573
       2.5097101       103.38644
       2.5105500       102.35490
       2.5113900       95.751705
       2.5122199       97.741471
       2.5130601       99.414613
       2.5139000       97.580760
       2.5147400       95.989690
       2.5155699       98.502818
       2.5164101       99.441033
       2.5172501       100.57665
       2.5180900       96.771031
       2.5189199       99.154220
       2.5197599       99.561396
       2.5206101       101.40688
       2.5214500       99.722892
       2.5222900       102.25575
       2.5231199       99.410426
       2.5239699       97.307817
       2.5248101       101.02234
       2.5256500       98.864316
       2.5264900       100.71317
       2.5273399       96.766941
       2.5281799       99.300384
       2.5290201       99.869705
       2.5298600       102.23023
       2.5307100       100.54251
       2.5315499       99.690870
       2.5323901       99.399939
       2.5332401       99.482252
       2.5340800       101.45262
       2.5349300       103.27285
       2.5357699       98.971538
       2.5366199       101.65496
       2.5374601       95.826982
       2.5383101       101.16809
       2.5391600       101.04187
       2.5400100       100.62067
       2.5408499       98.247098
       2.5416901       96.474110
       2.5425401       99.503100
       2.5433900       103.78362
       2.5442400       93.822727
       2.5450900       102.49772
       2.5459299       102.04979
       2.5467801       92.447534
       2.5476301       97.339219
       2.5484800       97.626351
       2.5493300       99.762639
       2.5501800       100.32176
       2.5510299       94.491332
       2.5518799       96.999295
       2.5527301       96.371929
       2.5535800       99.739659
       2.5544300       98.733369
       2.5552800       96.904198
       2.5561399       95.766146
       2.5569899       96.749467
       2.5578401       99.574917
       2.5586901       98.902318
       2.5595400       101.54712
       2.5604000       95.499919
       2.5612600       100.60506
       2.5621099       96.343851
       2.5629599       101.33113
       2.5638199       98.873087
       2.5646701       97.109230
       2.5655200       99.789553
       2.5663800       96.900340
       2.5672400       96.897791
       2.5680900       102.35780
       2.5689499       97.577000
       2.5698099       100.39113
       2.5706601       96.112777
       2.5715201       101.91634
       2.5723701       99.885222
       2.5732300       99.608906
       2.5740900       98.587719
       2.5749500       98.348688
       2.5758100       99.600426
       2.5766599       100.50154
       2.5775199       97.639193
       2.5783899       98.396033
       2.5792401       101.98518
       2.5801001       98.107893
       2.5809600       101.56849
       2.5818300       90.765272
       2.5826900       99.076259
       2.5835500       98.006147
       2.5844100       97.561309
       2.5852599       94.209414
       2.5861199       93.177023
       2.5869901       100.46426
       2.5878501       99.477174
       2.5887101       98.318536
       2.5895700       98.332183
       2.5904400       97.427153
       2.5913000       98.091862
       2.5921700       100.22800
       2.5930400       98.176889
       2.5939000       100.57786
       2.5947599       95.556287
       2.5956199       97.322704
       2.5964899       98.875879
       2.5973599       100.89072
       2.5982201       98.854828
       2.5990901       98.410425
       2.5999601       95.427434
       2.6008201       98.872932
       2.6016901       99.906670
       2.6025600       100.80720
       2.6034200       97.518034
       2.6042900       97.733718
       2.6051600       97.026878
       2.6060300       100.45313
       2.6069000       97.872816
       2.6077700       99.191999
       2.6086400       96.610068
       2.6095099       97.405434
       2.6103699       99.196913
       2.6112399       99.737275
       2.6121199       94.526446
       2.6129899       99.205665
       2.6138599       99.871770
       2.6147299       97.347340
       2.6156001       100.34303
       2.6164701       94.722920
       2.6173401       97.147261
       2.6182201       97.420485
       2.6190901       96.599000
       2.6199601       94.471929
       2.6208301       96.235806
       2.6217101       97.348261
       2.6225801       94.154907
       2.6234601       97.293017
       2.6243300       95.660776
       2.6252100       91.422780
       2.6260800       90.855000
       2.6269600       97.216044
       2.6278300       96.476717
       2.6287100       98.397739
       2.6295800       95.279274
       2.6304600       95.892722
       2.6313400       97.802453
       2.6322200       99.363565
       2.6330900       97.050710
       2.6339700       94.345556
       2.6348500       98.331524
       2.6357300       96.148569
       2.6366100       98.263079
       2.6374800       98.750621
       2.6383600       96.766621
       2.6392400       94.829366
       2.6401200       88.909090
       2.6410100       97.575846
       2.6418800       97.489424
       2.6427600       95.765293
       2.6436400       96.903645
       2.6445200       96.444686
       2.6454101       97.205296
       2.6462901       97.831897
       2.6471701       96.085688
       2.6480501       95.706774
       2.6489401       98.337630
       2.6498201       95.920906
       2.6507001       97.818347
       2.6515901       92.381871
       2.6524701       95.548059
       2.6533501       98.589774
       2.6542399       92.775585
       2.6551199       91.701868
       2.6560099       94.945155
       2.6568899       96.209861
       2.6577699       95.508836
       2.6586599       96.171064
       2.6595500       95.289344
       2.6604400       95.443861
       2.6613200       95.120201
       2.6622100       94.460396
       2.6631000       95.853431
       2.6639900       96.248124
       2.6648700       90.663837
       2.6657600       94.237104
       2.6666501       94.603031
       2.6675401       96.636168
       2.6684201       97.594910
       2.6693201       93.631612
       2.6702099       95.822621
       2.6710999       94.150264
       2.6719899       97.168021
       2.6728799       96.336776
       2.6737700       96.084011
       2.6746600       95.110431
       2.6755500       91.625205
       2.6764400       95.941734
       2.6773400       96.209085
       2.6782300       95.605387
       2.6791201       96.468595
       2.6800201       92.738969
       2.6809101       97.342766
       2.6818099       94.321569
       2.6826999       95.238073
       2.6835899       95.502992
       2.6844900       96.927129
       2.6853800       94.660727
       2.6862800       97.196864
       2.6871700       96.570826
       2.6880701       92.273332
       2.6889601       96.749001
       2.6898601       96.013542
       2.6907599       94.351032
       2.6916599       95.674587
       2.6925499       93.828939
       2.6934400       95.524915
       2.6943400       94.742003
       2.6952400       94.436650
       2.6961401       94.039583
       2.6970401       93.259472
       2.6979401       96.051204
       2.6988399       95.477570
       2.6997399       93.708043
       2.7006400       94.653759
       2.7015400       94.892751
       2.7024400       93.428082
       2.7033401       95.153783
       2.7042401       95.199345
       2.7051401       95.714556
       2.7060399       92.162485
       2.7069399       94.459484
       2.7078500       92.672240
       2.7087600       96.140234
       2.7096601       95.287812
       2.7105601       95.248608
       2.7114601       93.277732
       2.7123699       93.742168
       2.7132699       94.680770
       2.7141700       95.362866
       2.7150800       94.547196
       2.7159801       94.312885
       2.7168901       93.444035
       2.7177899       93.580759
       2.7186999       94.922050
       2.7196100       93.403707
       2.7205100       94.369805
       2.7214200       94.977730
       2.7223201       93.376793
       2.7232399       94.958026
       2.7241399       94.623636
       2.7250500       92.407254
       2.7259600       95.140282
       2.7268701       93.943129
       2.7277701       93.267178
       2.7286899       94.619013
       2.7295899       92.741983
       2.7305000       93.876652
       2.7314100       92.793942
       2.7323201       93.778609
       2.7332399       93.111836
       2.7341499       92.701733
       2.7350600       94.458622
       2.7359700       94.140543
       2.7368901       93.018522
       2.7377999       93.331105
       2.7387099       92.516753
       2.7396200       92.205265
       2.7405400       93.338151
       2.7414501       93.931838
       2.7423601       94.657693
       2.7432699       91.647274
       2.7441900       92.545151
       2.7451000       93.642574
       2.7460201       94.042432
       2.7469399       94.042665
       2.7478499       92.511529
       2.7487600       93.045146
       2.7496800       92.301864
       2.7506001       93.608400
       2.7515099       93.311915
       2.7524300       93.533743
       2.7533500       94.114114
       2.7542701       92.691789
       2.7551899       92.091327
       2.7561100       92.035444
       2.7570300       92.241096
       2.7579401       91.374166
       2.7588601       92.048373
       2.7597799       91.929104
       2.7607000       93.481562
       2.7616200       93.118097
       2.7625401       91.815341
       2.7634599       93.052376
       2.7643800       93.643524
       2.7653100       92.703109
       2.7662301       92.057193
       2.7671499       91.934580
       2.7680700       92.637001
       2.7689900       92.280523
       2.7699201       92.645888
       2.7708399       91.943187
       2.7717700       91.985230
       2.7726901       91.745298
       2.7736101       92.234990
       2.7745299       92.421337
       2.7754600       91.129610
       2.7763801       92.182712
       2.7773099       91.409367
       2.7782400       92.562218
       2.7791700       92.484101
       2.7800901       92.505850
       2.7810199       91.974453
       2.7819400       90.846849
       2.7828701       90.374408
       2.7837999       92.253453
       2.7847300       92.167574
       2.7856600       92.221160
       2.7865801       91.594220
       2.7875099       90.942304
       2.7884400       91.378004
       2.7893701       91.543280
       2.7902999       91.554222
       2.7912300       90.252571
       2.7921600       91.407709
       2.7930901       90.279950
       2.7940199       90.844019
       2.7949600       91.249596
       2.7958901       91.768965
       2.7968199       90.755018
       2.7977500       91.520465
       2.7986801       90.509852
       2.7996099       91.621173
       2.8005500       90.804999
       2.8014801       90.571803
       2.8024099       88.645305
       2.8033500       91.186191
       2.8042901       89.960903
       2.8052199       90.318214
       2.8061500       90.952956
       2.8070900       90.180793
       2.8080201       89.894959
       2.8089600       91.227837
       2.8099000       90.223621
       2.8108399       90.162552
       2.8117700       89.084028
       2.8127100       90.559823
       2.8136499       89.909836
       2.8145900       90.221925
       2.8155200       90.119230
       2.8164599       89.839366
       2.8174000       90.374243
       2.8183401       89.597021
       2.8192699       89.506527
       2.8202200       89.717326
       2.8211601       89.841159
       2.8220999       89.416296
       2.8230400       89.607042
       2.8239801       89.907520
       2.8249199       89.712781
       2.8258600       89.150728
       2.8268099       88.727483
       2.8277500       89.713672
       2.8286901       88.845986
       2.8296299       89.575466
       2.8305700       89.126159
       2.8315201       89.815631
       2.8324599       88.831332
       2.8334100       89.099216
       2.8343501       89.088651
       2.8352900       89.674565
       2.8362401       88.572413
       2.8371899       89.208472
       2.8381300       88.511877
       2.8390801       89.396253
       2.8400199       88.503232
       2.8409700       87.199720
       2.8419199       88.682173
       2.8428700       88.746954
       2.8438201       88.464076
       2.8447599       88.078542
       2.8457100       88.951085
       2.8466599       88.132827
       2.8476100       88.118958
       2.8485601       88.881351
       2.8495100       87.927242
       2.8504601       87.102753
       2.8514099       87.934705
       2.8523600       87.986712
       2.8533101       87.771435
       2.8542600       86.562710
       2.8552101       87.160322
       2.8561599       87.406729
       2.8571200       87.897963
       2.8580699       87.916736
       2.8590200       87.748582
       2.8599701       86.618933
       2.8609200       87.680700
       2.8618801       86.924305
       2.8628299       86.614417
       2.8637900       87.532317
       2.8647399       87.482200
       2.8656900       86.737591
       2.8666501       86.653911
       2.8676100       87.078833
       2.8685601       86.570076
       2.8695199       85.649220
       2.8704700       85.154497
       2.8714299       85.804339
       2.8723900       84.908216
       2.8733499       84.228523
       2.8743100       85.999165
       2.8752601       85.686475
       2.8762200       86.446815
       2.8771801       86.417729
       2.8781400       86.325162
       2.8791001       85.938891
       2.8800600       86.091122
       2.8810201       86.166380
       2.8819699       85.811763
       2.8829401       86.078067
       2.8838999       85.922299
       2.8848600       85.289524
       2.8858199       84.425976
       2.8867900       85.529069
       2.8877499       83.989095
       2.8887100       85.138185
       2.8896699       85.757071
       2.8906400       84.619368
       2.8915999       85.478768
       2.8925600       85.178426
       2.8935201       85.408221
       2.8944900       84.755588
       2.8954599       85.009952
       2.8964300       84.514153
       2.8973899       84.879664
       2.8983600       84.524582
       2.8993199       84.909786
       2.9002900       84.875739
       2.9012499       81.970573
       2.9022200       84.388847
       2.9031899       84.108315
       2.9041600       84.142391
       2.9051199       83.884839
       2.9060900       83.588383
       2.9070599       84.490340
       2.9080300       83.766297
       2.9089999       84.132544
       2.9099700       83.437781
       2.9109399       83.896498
       2.9119101       83.822801
       2.9128799       83.822297
       2.9138501       83.415489
       2.9148200       83.410682
       2.9157901       83.658330
       2.9167700       83.553647
       2.9177401       83.541678
       2.9187100       83.498714
       2.9196801       83.396193
       2.9206600       83.123967
       2.9216299       83.235666
       2.9226100       80.554499
       2.9235799       82.195832
       2.9245601       83.060524
       2.9255300       82.829682
       2.9265101       81.903873
       2.9274800       82.967530
       2.9284599       81.171209
       2.9294300       82.551544
       2.9304099       82.455129
       2.9313800       82.548976
       2.9323599       82.505730
       2.9333401       82.125963
       2.9343200       79.774791
       2.9352901       81.976853
       2.9362700       81.920049
       2.9372499       82.128163
       2.9382300       80.569866
       2.9392099       81.756770
       2.9401901       81.787735
       2.9411700       81.539119
       2.9421501       82.016842
       2.9431300       80.751860
       2.9441099       81.659162
       2.9450901       80.431407
       2.9460700       80.821477
       2.9470601       80.191984
       2.9480400       81.503598
       2.9490199       81.258121
       2.9500101       80.759997
       2.9509900       81.014021
       2.9519701       81.344777
       2.9529600       81.277118
       2.9539399       80.843967
       2.9549201       80.619929
       2.9559100       80.806624
       2.9568999       80.443692
       2.9578800       80.793477
       2.9588599       80.889723
       2.9598501       79.646732
       2.9608400       79.267459
       2.9618199       80.688514
       2.9628100       80.650638
       2.9638000       80.504489
       2.9647901       80.008404
       2.9657800       80.631036
       2.9667599       80.618156
       2.9677501       80.549280
       2.9687400       80.255931
       2.9697399       78.569085
       2.9707201       79.011787
       2.9717100       80.186886
       2.9727099       79.953616
       2.9737000       80.374671
       2.9746900       80.282385
       2.9756701       80.001872
       2.9766700       79.992931
       2.9776599       80.166378
       2.9786601       79.679752
       2.9796500       79.267255
       2.9806399       79.966143
       2.9816401       79.823832
       2.9826300       79.839935
       2.9836199       79.741737
       2.9846201       79.848008
       2.9856100       79.781696
       2.9866099       79.590829
       2.9876101       79.270216
       2.9886000       79.245996
       2.9895899       78.722062
       2.9905901       79.525016
       2.9915900       78.985085
       2.9925799       79.355369
       2.9935801       79.141135
       2.9945800       79.319088
       2.9955800       79.124954
       2.9965799       78.309676
       2.9975801       79.176583
       2.9985800       79.021071
       2.9995799       77.572094
       3.0005801       76.973285
       3.0015700       78.889717
       3.0025799       78.923721
       3.0035801       78.715166
       3.0045800       78.416908
       3.0055799       78.767207
       3.0065801       78.184724
       3.0075800       77.123388
       3.0085800       77.126935
       3.0095799       78.393056
       3.0105901       78.031606
       3.0116000       78.550103
       3.0125999       78.434653
       3.0136001       78.349006
       3.0146101       78.132358
       3.0156100       78.245884
       3.0166199       78.052977
       3.0176201       78.131200
       3.0186300       78.130604
       3.0196300       77.654485
       3.0206399       77.339067
       3.0216401       78.069133
       3.0226600       77.898396
       3.0236700       77.644948
       3.0246699       77.554198
       3.0256801       77.913069
       3.0266800       76.881406
       3.0276999       77.399399
       3.0287099       77.682034
       3.0297101       77.757999
       3.0307300       77.604431
       3.0317400       77.457865
       3.0327401       76.647831
       3.0337601       77.412081
       3.0347700       77.358315
       3.0357800       77.126935
       3.0367899       76.987047
       3.0378101       76.701689
       3.0388200       75.387051
       3.0398300       75.106039
       3.0408399       76.779617
       3.0418601       74.170029
       3.0428700       76.589932
       3.0438800       76.592141
       3.0448999       76.625617
       3.0459099       76.987479
       3.0469301       77.013603
       3.0479500       75.425954
       3.0489700       75.440807
       3.0499799       76.839198
       3.0509901       76.900964
       3.0520101       76.738242
       3.0530300       76.711008
       3.0540500       76.493565
       3.0550599       75.762743
       3.0560801       76.775861
       3.0571001       76.603064
       3.0581200       76.065120
       3.0591400       76.567815
       3.0601599       76.584994
       3.0611801       76.553039
       3.0622001       76.553732
       3.0632200       76.493638
       3.0642400       75.295249
       3.0652599       75.377020
       3.0662899       76.401444
       3.0673101       76.376947
       3.0683300       75.540629
       3.0693500       76.296694
       3.0703700       76.045756
       3.0713999       76.184171
       3.0724299       76.134243
       3.0734501       75.979424
       3.0744700       75.919286
       3.0755000       76.177381
       3.0765200       76.020368
       3.0775499       76.069457
       3.0785799       74.734553
       3.0796001       75.976895
       3.0806201       75.501924
       3.0816500       75.638517
       3.0826800       75.789211
       3.0837100       75.338388
       3.0847299       74.464266
       3.0857601       74.337617
       3.0867901       74.951415
       3.0878201       75.787787
       3.0888500       75.674886
       3.0898800       75.526294
       3.0909100       72.680264
       3.0919399       75.494083
       3.0929699       75.635299
       3.0940001       75.353536
       3.0950301       75.524559
       3.0960600       75.238459
       3.0971000       75.515997
       3.0981300       74.444349
       3.0991600       75.415215
       3.1001999       75.398371
       3.1012299       75.446879
       3.1022601       75.337007
       3.1032901       75.424180
       3.1043200       75.213861
       3.1053600       74.510230
       3.1064000       74.695267
       3.1074300       75.112591
       3.1084700       75.254117
       3.1095099       75.186138
       3.1105499       75.217350
       3.1115799       75.170655
       3.1126201       75.085909
       3.1136501       74.891693
       3.1146901       73.178587
       3.1157300       72.258870
       3.1167700       73.431037
       3.1178100       74.717505
       3.1188400       74.668082
       3.1198900       74.828856
       3.1209300       74.753777
       3.1219599       74.889585
       3.1230099       74.624987
       3.1240499       74.836919
       3.1250899       74.635056
       3.1261301       74.704916
       3.1271801       74.509338
       3.1282201       74.426632
       3.1292601       74.701116
       3.1303000       73.182556
       3.1313500       73.159223
       3.1323900       74.536291
       3.1334300       74.588143
       3.1344800       74.491878
       3.1355200       72.759485
       3.1365700       73.085303
       3.1376200       74.438132
       3.1386600       74.475722
       3.1396999       74.268315
       3.1407499       74.056344
       3.1417999       74.391160
       3.1428499       74.115847
       3.1438999       74.403294
       3.1449399       74.290829
       3.1459899       74.148969
       3.1470399       74.226272
       3.1480899       72.840737
       3.1491399       74.337942
       3.1501901       74.251941
       3.1512401       72.621957
       3.1522901       73.591976
       3.1533401       74.212364
       3.1543901       74.218998
       3.1554401       74.086175
       3.1564901       73.320942
       3.1575501       73.025610
       3.1586001       74.090561
       3.1596501       73.795118
       3.1607001       73.985598
       3.1617601       73.968714
       3.1628201       73.441373
       3.1638701       73.956803
       3.1649201       73.689534
       3.1659701       73.898782
       3.1670301       73.839323
       3.1680901       73.403013
       3.1691501       73.815868
       3.1702001       72.749604
       3.1712501       73.604435
       3.1723101       73.542620
       3.1733699       73.662693
       3.1744299       73.721513
       3.1754799       73.717520
       3.1765499       73.321092
       3.1776099       73.621042
       3.1786599       70.664073
       3.1797199       73.384797
       3.1807799       72.654396
       3.1818399       73.299382
       3.1829100       71.836550
       3.1839700       72.076017
       3.1850200       73.594307
       3.1860900       73.522368
       3.1871600       73.469150
       3.1882100       73.163240
       3.1892700       73.410834
       3.1903300       73.418544
       3.1914001       73.404035
       3.1924601       71.658980
       3.1935301       73.387859
       3.1945901       73.342967
       3.1956601       73.183036
       3.1967199       73.271174
       3.1977899       73.275467
       3.1988499       72.949742
       3.1999199       71.350608
       3.2009799       72.142896
       3.2020600       73.170897
       3.2031300       73.004462
       3.2041900       72.994364
       3.2052600       72.689655
       3.2063200       72.782799
       3.2074001       72.874993
       3.2084701       73.072441
       3.2095301       72.981716
       3.2106099       72.784321
       3.2116799       72.862457
       3.2127399       72.951797
       3.2138200       72.950047
       3.2148900       72.050857
       3.2159600       72.814022
       3.2170300       72.794749
       3.2181101       72.807809
       3.2191801       72.737945
       3.2202499       72.790083
       3.2213199       72.344687
       3.2224000       72.724992
       3.2234700       72.216797
       3.2245400       72.624114
       3.2256200       72.638647
       3.2266901       72.458440
       3.2277701       72.464653
       3.2288499       70.992822
       3.2299299       71.111577
       3.2309999       72.372270
       3.2320700       71.048104
       3.2331500       70.998516
       3.2342300       71.842637
       3.2353101       72.475527
       3.2363901       71.968021
       3.2374699       72.417303
       3.2385499       70.777293
       3.2396300       72.137105
       3.2407100       72.215479
       3.2417901       72.076851
       3.2428701       71.404049
       3.2439499       72.260478
       3.2450299       71.281999
       3.2461100       71.275869
       3.2471900       72.183883
       3.2482700       72.077558
       3.2493501       72.129260
       3.2504399       72.025038
       3.2515299       71.756854
       3.2526100       72.024103
       3.2536900       71.880479
       3.2547700       71.941915
       3.2558601       71.765344
       3.2569499       71.964212
       3.2580400       71.869784
       3.2591200       71.925701
       3.2602000       71.897454
       3.2612901       71.883502
       3.2623799       71.828627
       3.2634699       71.726135
       3.2645500       71.215702
       3.2656400       71.751518
       3.2667301       71.621729
       3.2678199       71.706242
       3.2688999       71.599879
       3.2700000       71.642857
       3.2710900       71.476317
       3.2721701       71.545667
       3.2732699       71.563941
       3.2743599       71.562793
       3.2754500       71.494804
       3.2765400       70.868838
       3.2776301       71.471224
       3.2787299       71.415364
       3.2798200       71.153518
       3.2809200       69.938809
       3.2820101       69.854160
       3.2831099       71.228577
       3.2842000       69.658795
       3.2852800       71.252977
       3.2863901       69.877192
       3.2874899       69.424314
       3.2885799       71.169185
       3.2896800       71.141951
       3.2907701       71.018903
       3.2918701       70.622984
       3.2929599       69.999029
       3.2940600       69.856878
       3.2951601       70.660496
       3.2962601       69.859941
       3.2973599       69.087758
       3.2984500       70.404340
       3.2995601       70.641103
       3.3006599       70.674123
       3.3017499       70.757551
       3.3028600       70.790537
       3.3039601       70.780012
       3.3050599       70.427416
       3.3061600       70.716045
       3.3072600       70.626143
       3.3083601       70.633563
       3.3094699       70.038340
       3.3105800       70.541693
       3.3116801       70.469014
       3.3127799       70.536910
       3.3138800       70.482156
       3.3149900       70.257556
       3.3160901       70.026375
       3.3171999       70.133490
       3.3183100       69.873228
       3.3194101       69.146699
       3.3205099       65.337415
       3.3216200       70.229716
       3.3227301       70.242528
       3.3238399       70.081580
       3.3249500       69.818736
       3.3260500       69.431191
       3.3271599       70.070085
       3.3282700       70.041523
       3.3293800       69.545948
       3.3304901       70.054268
       3.3316000       69.981855
       3.3327100       69.987224
       3.3338201       69.995351
       3.3349299       69.754633
       3.3360500       69.892908
       3.3371601       68.666417
       3.3382699       67.737832
       3.3393800       67.629108
       3.3404901       69.291211
       3.3416100       68.467675
       3.3427300       68.845679
       3.3438399       68.559133
       3.3449500       69.701449
       3.3460701       69.530092
       3.3471799       69.703247
       3.3483000       69.671259
       3.3494201       69.499707
       3.3505299       69.577635
       3.3516400       69.473452
       3.3527601       69.493238
       3.3538799       68.942467
       3.3550000       69.403913
       3.3561201       69.310430
       3.3572400       68.669795
       3.3583601       69.399309
       3.3594699       69.408599
       3.3606000       69.210962
       3.3617201       69.345761
       3.3628299       69.309586
       3.3639600       69.286626
       3.3650801       68.803887
       3.3662000       67.995971
       3.3673201       69.187328
       3.3684399       69.081967
       3.3695700       68.960775
       3.3706901       68.123405
       3.3718200       69.051981
       3.3729401       68.779343
       3.3740699       68.826683
       3.3751900       68.954873
       3.3763199       68.630664
       3.3774400       68.583750
       3.3785701       68.661698
       3.3796899       68.769704
       3.3808200       68.790692
       3.3819399       68.525022
       3.3830700       68.438139
       3.3841901       68.717596
       3.3853300       68.571825
       3.3864601       68.733989
       3.3875799       68.697974
       3.3887100       68.566164
       3.3898399       68.548971
       3.3909700       68.092080
       3.3921001       67.302113
       3.3932300       67.573215
       3.3943601       67.654113
       3.3954999       67.836723
       3.3966300       64.308354
       3.3977599       66.059752
       3.3988900       65.693685
       3.4000299       68.286010
       3.4011600       66.603075
       3.4022901       68.279575
       3.4034200       68.254870
       3.4045601       68.241059
       3.4057000       68.225489
       3.4068301       67.155359
       3.4079599       67.851159
       3.4091001       67.393639
       3.4102399       67.877424
       3.4113801       68.054844
       3.4125099       68.044886
       3.4136500       67.086454
       3.4147899       66.765274
       3.4159300       66.924977
       3.4170699       67.640642
       3.4182100       67.793134
       3.4193499       67.704632
       3.4204900       67.704749
       3.4216299       67.744195
       3.4227700       67.563940
       3.4239099       67.523874
       3.4250500       67.608435
       3.4261899       67.684706
       3.4273300       67.035184
       3.4284699       67.517055
       3.4296200       67.668016
       3.4307599       67.461080
       3.4319000       67.579306
       3.4330399       67.547977
       3.4341900       67.383680
       3.4353399       67.396328
       3.4364800       67.441798
       3.4376199       67.364243
       3.4387701       67.177873
       3.4399199       66.976747
       3.4410701       67.245769
       3.4422100       66.972162
       3.4433601       67.316908
       3.4445100       67.145415
       3.4456601       67.177466
       3.4468100       67.065466
       3.4479499       66.318987
       3.4491000       66.275770
       3.4502499       67.067511
       3.4514000       67.105198
       3.4525499       65.999571
       3.4537001       66.134104
       3.4548600       66.940247
       3.4560101       65.630300
       3.4571500       65.823769
       3.4583099       65.240433
       3.4594600       66.494851
       3.4606199       65.706560
       3.4617701       66.835070
       3.4629300       66.670705
       3.4640801       66.550904
       3.4652400       65.969346
       3.4663899       66.659090
       3.4675500       66.595608
       3.4686999       66.631991
       3.4698601       66.502847
       3.4710100       66.572657
       3.4721701       66.489171
       3.4733300       66.044943
       3.4744799       66.299002
       3.4756401       66.421188
       3.4768000       66.353814
       3.4779601       66.300771
       3.4791200       66.359659
       3.4802799       66.358510
       3.4814401       66.304580
       3.4826000       66.249699
       3.4837601       66.218811
       3.4849200       66.074891
       3.4860799       65.941681
       3.4872401       65.967054
       3.4884100       65.911970
       3.4895699       65.848605
       3.4907300       66.075696
       3.4919000       65.734575
       3.4930601       65.613717
       3.4942300       65.443120
       3.4953899       65.664527
       3.4965501       65.887823
       3.4977200       65.837052
       3.4988899       65.617245
       3.5000401       65.724941
       3.5012200       65.245124
       3.5023899       65.672382
       3.5035501       65.704632
       3.5047200       65.497128
       3.5058999       65.614686
       3.5070601       65.579703
       3.5082200       64.795236
       3.5093999       64.242323
       3.5105700       64.575845
       3.5117400       65.337653
       3.5129099       63.773749
       3.5140901       64.997230
       3.5152500       64.796074
       3.5164101       65.180353
       3.5175900       64.985982
       3.5187600       64.566105
       3.5199299       63.791165
       3.5211101       64.213354
       3.5222900       64.129490
       3.5234699       64.636260
       3.5246401       64.090034
       3.5258100       65.076984
       3.5269799       64.812958
       3.5281601       64.926978
       3.5293400       64.609520
       3.5305200       64.782336
       3.5316899       64.815880
       3.5328600       64.704912
       3.5340500       64.708348
       3.5352299       64.737666
       3.5364001       64.451053
       3.5375800       64.268069
       3.5387599       63.822121
       3.5399401       64.350717
       3.5411201       64.015969
       3.5423000       64.533753
       3.5434799       63.947835
       3.5446601       64.199756
       3.5458400       64.398968
       3.5470200       64.457076
       3.5481999       64.078918
       3.5493901       64.199310
       3.5505800       64.445906
       3.5517600       64.413768
       3.5529499       64.227049
       3.5541301       64.308242
       3.5553100       63.750857
       3.5565000       64.177547
       3.5576799       64.262909
       3.5588601       64.212608
       3.5600500       63.248341
       3.5612400       64.145995
       3.5624299       64.125778
       3.5636201       64.096993
       3.5648000       64.079596
       3.5659800       63.983026
       3.5671699       63.863210
       3.5683601       63.983927
       3.5695500       63.143145
       3.5707400       62.430093
       3.5719299       62.848463
       3.5731201       62.710688
       3.5743101       62.980913
       3.5755000       63.224349
       3.5767000       63.223709
       3.5778999       63.521847
       3.5790901       63.175991
       3.5802801       62.980341
       3.5814700       63.501106
       3.5826700       63.594061
       3.5838699       63.332317
       3.5850599       63.186827
       3.5862501       63.460211
       3.5874500       62.493585
       3.5886500       62.468749
       3.5898399       62.339513
       3.5910299       63.228967
       3.5922301       62.172337
       3.5934300       63.290307
       3.5946300       63.250062
       3.5958300       63.115267
       3.5970299       62.435317
       3.5982299       63.110649
       3.5994301       62.999652
       3.6006200       62.920624
       3.6018200       62.987183
       3.6030200       62.812264
       3.6042299       62.993900
       3.6054299       62.827374
       3.6066301       62.902156
       3.6078300       62.890453
       3.6090300       62.793917
       3.6102300       62.809400
       3.6114399       62.791824
       3.6126499       62.706797
       3.6138501       62.667530
       3.6150401       62.605768
       3.6162500       62.607450
       3.6174600       62.596527
       3.6186700       62.582023
       3.6198699       62.562872
       3.6210799       62.500224
       3.6222899       62.419388
       3.6235001       62.437532
       3.6247001       62.235635
       3.6259100       62.202406
       3.6271200       62.360447
       3.6283300       62.232461
       3.6295300       62.123504
       3.6307399       61.647138
       3.6319599       61.726282
       3.6331699       61.797832
       3.6343801       62.166929
       3.6355901       60.947625
       3.6368101       60.928692
       3.6380200       61.318675
       3.6392300       62.052836
       3.6404400       61.172865
       3.6416500       61.934871
       3.6428699       61.918870
       3.6440899       61.187558
       3.6452999       61.598654
       3.6465099       61.737287
       3.6477301       61.206074
       3.6489401       61.703637
       3.6501601       61.691837
       3.6513700       61.644071
       3.6525900       61.455515
       3.6538200       60.225298
       3.6550300       61.367895
       3.6562500       61.199721
       3.6574600       61.450848
       3.6586800       60.177764
       3.6599100       59.964256
       3.6611300       61.248108
       3.6623499       60.376579
       3.6635599       61.229034
       3.6647899       61.360742
       3.6660099       61.308062
       3.6672399       60.695912
       3.6684501       61.215945
       3.6696701       61.033413
       3.6709001       60.566031
       3.6721201       61.045019
       3.6733501       61.139026
       3.6745701       61.089243
       3.6758001       61.051237
       3.6770201       60.154188
       3.6782501       60.344028
       3.6794701       59.561146
       3.6807001       60.881924
       3.6819201       59.508669
       3.6831501       59.470478
       3.6843901       60.742559
       3.6856101       60.748248
       3.6868401       60.787253
       3.6880600       60.729436
       3.6893001       60.450697
       3.6905301       60.530806
       3.6917601       60.563744
       3.6929901       60.312002
       3.6942201       60.360102
       3.6954501       59.986509
       3.6966801       60.153902
       3.6979201       60.167117
       3.6991501       59.115934
       3.7003801       60.043720
       3.7016201       60.329006
       3.7028501       60.111326
       3.7040801       59.727076
       3.7053199       60.153336
       3.7065499       58.857597
       3.7077899       59.897847
       3.7090199       58.618483
       3.7102599       60.121120
       3.7114999       60.125500
       3.7127299       59.889100
       3.7139699       59.952117
       3.7152100       60.049448
       3.7164500       60.003707
       3.7176800       59.953993
       3.7189200       59.950203
       3.7201700       59.847396
       3.7214100       59.845371
       3.7226501       59.575500
       3.7238901       59.806913
       3.7251301       59.722502
       3.7263601       59.533723
       3.7276001       59.525887
       3.7288499       59.612053
       3.7300899       59.502835
       3.7313399       59.474326
       3.7325900       58.724842
       3.7338300       59.133229
       3.7350800       57.954980
       3.7363200       59.335291
       3.7375600       58.530781
       3.7388000       59.197651
       3.7400601       58.005635
       3.7413099       58.532055
       3.7425499       59.145165
       3.7437899       59.135953
       3.7450399       58.002708
       3.7462900       59.021225
       3.7475400       59.169821
       3.7487900       59.041568
       3.7500401       59.091845
       3.7512901       58.947373
       3.7525401       58.570731
       3.7537899       57.851137
       3.7550399       58.989266
       3.7563000       58.910321
       3.7575500       58.873259
       3.7588000       58.947009
       3.7600501       58.811255
       3.7613001       58.734994
       3.7625599       58.478968
       3.7638099       58.463039
       3.7650599       58.777290
       3.7663200       58.333541
       3.7675800       58.077045
       3.7688301       58.474738
       3.7700901       58.500082
       3.7713499       58.564635
       3.7726099       58.532530
       3.7738700       58.317235
       3.7751300       58.501206
       3.7763901       57.821518
       3.7776501       58.383324
       3.7788999       57.205748
       3.7801499       58.324731
       3.7814100       57.689534
       3.7826800       57.966291
       3.7839501       58.180041
       3.7852099       58.228340
       3.7864699       58.152826
       3.7877300       58.197879
       3.7889900       58.155050
       3.7902501       58.012294
       3.7915101       58.125694
       3.7927699       58.066878
       3.7940400       57.997843
       3.7953000       57.924907
       3.7965701       57.958930
       3.7978401       57.920283
       3.7990999       57.858808
       3.8003700       57.856181
       3.8016400       57.749784
       3.8029001       57.800240
       3.8041699       57.803462
       3.8054399       57.688870
       3.8067000       57.735139
       3.8079700       57.534027
       3.8092401       57.636437
       3.8105099       56.911875
       3.8117800       57.573725
       3.8130600       56.232347
       3.8143301       57.524205
       3.8155899       56.659847
       3.8168700       56.917744
       3.8181400       56.458522
       3.8194101       56.815010
       3.8206899       56.786448
       3.8219600       57.093642
       3.8232300       57.205971
       3.8245001       57.271043
       3.8257799       57.248683
       3.8270600       57.219714
       3.8283300       57.214607
       3.8296101       57.171865
       3.8308899       56.989057
       3.8321700       57.000052
       3.8334401       56.768401
       3.8347199       56.297535
       3.8360000       56.224647
       3.8372800       56.996597
       3.8385501       56.552228
       3.8398299       56.700752
       3.8411100       56.731805
       3.8424001       56.781553
       3.8436799       56.790814
       3.8449600       56.743842
       3.8462400       56.782450
       3.8475201       56.666981
       3.8488100       56.661383
       3.8500900       56.485999
       3.8513701       56.658844
       3.8526599       56.028105
       3.8539400       56.465641
       3.8552201       55.540642
       3.8565099       56.516155
       3.8578000       55.905270
       3.8590801       56.152074
       3.8603699       56.360431
       3.8616500       56.422861
       3.8629401       55.456521
       3.8642299       56.309568
       3.8655100       56.196744
       3.8668101       55.948850
       3.8680899       56.022062
       3.8693800       56.183011
       3.8706801       56.104036
       3.8719599       55.323538
       3.8732500       55.842699
       3.8745401       56.001758
       3.8758399       56.040511
       3.8771300       55.952785
       3.8784201       55.933391
       3.8797100       55.848698
       3.8810000       55.865936
       3.8822999       55.769579
       3.8835900       55.749526
       3.8848901       54.909340
       3.8861799       55.416779
       3.8874800       55.765765
       3.8887701       55.652263
       3.8900700       55.643841
       3.8913600       55.634236
       3.8926599       55.071786
       3.8939700       55.468345
       3.8952601       54.395893
       3.8965600       55.246332
       3.8978500       54.606585
       3.8991599       55.438392
       3.9004600       55.382896
       3.9017601       55.355865
       3.9030600       55.216855
       3.9043601       55.147780
       3.9056599       55.288289
       3.9069600       55.218958
       3.9082699       54.766239
       3.9095700       54.764926
       3.9108701       54.733394
       3.9121799       55.117585
       3.9134800       54.869841
       3.9147799       55.123085
       3.9160900       55.093041
       3.9173901       54.920598
       3.9187000       55.064575
       3.9200001       54.680699
       3.9213099       54.993238
       3.9226201       54.898161
       3.9239199       54.868067
       3.9252300       54.846663
       3.9265399       54.800171
       3.9278600       54.790731
       3.9291601       54.766385
       3.9304600       54.685104
       3.9317801       54.671579
       3.9330900       54.121074
       3.9344001       54.372201
       3.9357100       53.788724
       3.9370301       54.642207
       3.9383399       54.075401
       3.9396501       54.551680
       3.9409599       54.521175
       3.9422801       54.480232
       3.9435899       54.321483
       3.9449000       54.422817
       3.9462099       54.286113
       3.9475400       54.358060
       3.9488599       54.311588
       3.9501700       53.981709
       3.9514799       53.877967
       3.9528000       54.119543
       3.9541199       53.759629
       3.9554400       54.040064
       3.9567599       53.879067
       3.9580801       53.732279
       3.9593899       53.746555
       3.9607100       54.020070
       3.9620299       53.961802
       3.9633601       54.021092
       3.9646800       53.918576
       3.9660001       53.843954
       3.9673200       53.947613
       3.9686401       53.901383
       3.9699600       53.854474
       3.9712801       53.863861
       3.9726100       53.830075
       3.9739299       53.724981
       3.9752600       53.738225
       3.9765899       53.586391
       3.9779201       53.496257
       3.9792399       53.202079
       3.9805601       53.473340
       3.9818900       52.866976
       3.9832201       53.317417
       3.9845500       53.037757
       3.9858799       52.375113
       3.9872100       53.368106
       3.9885399       52.896314
       3.9898701       53.377182
       3.9912000       52.392364
       3.9925301       53.327690
       3.9938600       53.325486
       3.9951899       52.746753
       3.9965200       53.219185
       3.9978499       53.188268
       3.9991801       52.565389
       4.0005002       53.082737
       4.0018501       53.019134
       4.0031800       53.005076
       4.0045199       53.105135
       4.0058498       53.048695
       4.0071802       53.022008
       4.0085201       52.995346
       4.0098600       52.973141
       4.0112000       52.833094
       4.0125299       52.765759
       4.0138602       52.893426
       4.0152001       52.390775
       4.0165401       52.524988
       4.0178800       51.873092
       4.0192199       52.671530
       4.0205598       51.892858
       4.0219002       52.588649
       4.0232401       52.207171
       4.0245800       52.595298
       4.0259199       52.452003
       4.0272598       52.590985
       4.0286102       52.547628
       4.0299602       52.488765
       4.0313001       52.451412
       4.0326400       52.167260
       4.0339799       52.379518
       4.0353298       52.422201
       4.0366802       52.383380
       4.0380201       52.365871
       4.0393600       52.305971
       4.0407100       52.270077
       4.0420599       52.263278
       4.0434098       52.195347
       4.0447602       51.233121
       4.0461001       52.136881
       4.0474501       52.126617
       4.0488000       52.032930
       4.0501499       52.017889
       4.0514998       51.148661
       4.0528498       50.468072
       4.0542002       51.435309
       4.0555501       51.825228
       4.0569100       51.806484
       4.0582600       51.855792
       4.0596099       51.771133
       4.0609698       51.862014
       4.0623202       51.789019
       4.0636702       51.765768
       4.0650301       50.570927
       4.0663800       51.336243
       4.0677299       51.631322
       4.0690899       51.263244
       4.0704498       50.055308
       4.0718098       49.560382
       4.0731702       50.056210
       4.0745201       50.292353
       4.0758700       50.312105
       4.0772300       51.024081
       4.0785899       51.329725
       4.0799499       51.421246
       4.0813098       51.244567
       4.0826702       51.304076
       4.0840302       51.352802
       4.0853901       51.321332
       4.0867600       51.281130
       4.0881300       50.560959
       4.0894899       51.232196
       4.0908499       51.222416
       4.0922098       51.207501
       4.0935702       50.950021
       4.0949402       51.114022
       4.0963101       51.115534
       4.0976701       51.009708
       4.0990400       50.956989
       4.1004100       50.884324
       4.1017699       50.948383
       4.1031399       50.923068
       4.1045098       50.949023
       4.1058698       50.889815
       4.1072402       50.559869
       4.1086102       50.532625
       4.1099801       50.494080
       4.1113501       49.855815
       4.1127200       50.416453
       4.1140900       50.449207
       4.1154599       50.654859
       4.1168399       50.575356
       4.1182098       50.619537
       4.1195798       50.628599
       4.1209602       50.489549
       4.1223302       50.588154
       4.1237001       50.547822
       4.1250801       50.518475
       4.1264501       50.500932
       4.1278200       50.370116
       4.1292000       50.445136
       4.1305799       50.397869
       4.1319599       50.362774
       4.1333399       49.971280
       4.1347098       50.224665
       4.1360798       50.192279
       4.1374602       49.803188
       4.1388402       50.181264
       4.1402202       49.859740
       4.1416001       50.147352
       4.1429801       49.857734
       4.1443601       49.834876
       4.1457500       50.089792
       4.1471400       50.024197
       4.1485200       49.799389
       4.1499000       49.772465
       4.1512799       49.519938
       4.1526599       49.920247
       4.1540399       49.923169
       4.1554298       49.759022
       4.1568198       49.816224
       4.1581998       49.402830
       4.1595898       49.770066
       4.1609802       49.576679
       4.1623602       49.742120
       4.1637502       49.595074
       4.1651402       49.649877
       4.1665301       49.205765
       4.1679201       49.170176
       4.1693001       49.358703
       4.1706901       49.107451
       4.1720800       48.892416
       4.1734700       49.280286
       4.1748700       49.390740
       4.1762600       49.183735
       4.1776500       49.186347
       4.1790400       49.195773
       4.1804299       49.171621
       4.1818299       49.047341
       4.1832299       49.230615
       4.1846199       48.459756
       4.1860099       49.161182
       4.1874099       49.250605
       4.1888099       49.195114
       4.1901999       48.978689
       4.1915898       48.265719
       4.1929898       49.093775
       4.1943898       49.028917
       4.1957898       49.028675
       4.1971898       49.004082
       4.1985898       48.916840
       4.1999898       48.961045
       4.2013898       47.213397
       4.2027898       48.593392
       4.2041898       48.393662
       4.2055898       47.666605
       4.2069898       48.520054
       4.2083902       48.054581
       4.2097902       48.686953
       4.2112002       48.688111
       4.2126098       48.622167
       4.2140098       48.650773
       4.2154102       48.670142
       4.2168198       48.552691
       4.2182298       48.557605
       4.2196298       48.418163
       4.2210302       48.529319
       4.2224398       48.297591
       4.2238498       48.422723
       4.2252598       48.336678
       4.2266698       48.394495
       4.2280798       48.334323
       4.2294898       48.209908
       4.2308898       48.199237
       4.2322998       48.159801
       4.2337198       48.138828
       4.2351298       48.015687
       4.2365398       47.963836
       4.2379498       47.877045
       4.2393599       47.803856
       4.2407799       47.673481
       4.2421899       47.585600
       4.2435999       47.290384
       4.2450199       47.228419
       4.2464399       46.732039
       4.2478499       46.867934
       4.2492599       46.801850
       4.2506800       46.378290
       4.2521000       46.255062
       4.2535200       46.156316
       4.2549400       46.196256
       4.2563601       46.015817
       4.2577801       45.812220
       4.2591901       45.560744
       4.2606001       45.324693
       4.2620301       45.185445
       4.2634602       44.964029
       4.2648802       44.752198
       4.2663002       44.446021
       4.2677202       44.289448
       4.2691398       43.885708
       4.2705598       44.264201
       4.2719798       44.143818
       4.2734098       44.419271
       4.2748399       44.976613
       4.2762599       45.343743
       4.2776799       45.667050
       4.2791100       45.916955
       4.2805400       46.129722
       4.2819600       46.342720
       4.2833900       46.425290
       4.2848201       46.793815
       4.2862501       46.936475
       4.2876801       46.979730
       4.2891002       47.090872
       4.2905302       47.108216
       4.2919598       47.029648
       4.2933898       47.070659
       4.2948298       41.207929
       4.2962599       40.979098
       4.2976899       42.836831
       4.2991199       44.294042
       4.3005500       43.495333
       4.3019900       44.324266
       4.3034201       44.642413
       4.3048501       44.949699
       4.3062901       44.688672
       4.3077302       44.916747
       4.3091698       45.018245
       4.3105998       44.910093
       4.3120298       44.522790
       4.3134699       44.716318
       4.3149099       46.417808
       4.3163500       45.059741
       4.3177900       44.703060
       4.3192301       44.703505
       4.3206701       46.466670
       4.3221102       44.373395
       4.3235502       44.695330
       4.3249898       46.604920
       4.3264298       44.519253
       4.3278699       46.466021
       4.3293099       44.512342
       4.3307600       44.635987
       4.3322101       45.871127
       4.3336501       44.366727
       4.3350902       46.292119
       4.3365302       44.330469
       4.3379798       46.335258
       4.3394299       44.161069
       4.3408699       46.153098
       4.3423200       44.176174
       4.3437700       46.211938
       4.3452201       43.876632
       4.3466702       46.091128
       4.3481102       43.536960
       4.3495598       46.029381
       4.3510098       37.663054
       4.3524599       42.451380
       4.3539200       40.665643
       4.3553700       42.699725
       4.3568201       42.374998
       4.3582702       44.627356
       4.3597202       43.521961
       4.3611798       43.122616
       4.3626299       43.840907
       4.3640800       41.289748
       4.3655400       43.900488
       4.3670001       41.672931
       4.3684502       43.827683
       4.3699002       44.152618
       4.3713598       43.317191
       4.3728199       43.768339
       4.3742800       41.801620
       4.3757401       43.418932
       4.3772001       44.975547
       4.3786602       41.406579
       4.3801198       44.174483
       4.3815799       42.346102
       4.3830400       43.621483
       4.3845000       45.241672
       4.3859601       41.346363
       4.3874202       44.831366
       4.3888798       43.819726
       4.3903399       41.082176
       4.3917999       44.647259
       4.3932700       42.778675
       4.3947401       42.715276
       4.3962002       42.801936
       4.3976598       44.040323
       4.3991299       41.223915
       4.4006000       44.500945
       4.4020600       40.542112
       4.4035301       44.061039
       4.4050002       42.624879
       4.4064698       41.560510
       4.4079399       36.299574
       4.4094100       41.440088
       4.4108801       38.992918
       4.4123502       40.233820
       4.4138198       42.297923
       4.4152899       40.024655
       4.4167600       41.796207
       4.4182301       40.626097
       4.4197102       42.629837
       4.4211798       39.631251
       4.4226499       41.491528
       4.4241300       42.763580
       4.4256001       38.475482
       4.4270701       43.738129
       4.4285498       41.193367
       4.4300299       40.165357
       4.4315100       42.788827
       4.4329901       41.642363
       4.4344602       40.328903
       4.4359298       42.648028
       4.4374099       41.892656
       4.4388900       42.744090
       4.4403701       39.017548
       4.4418502       42.762679
       4.4433298       42.105704
       4.4448099       39.485574
       4.4462900       42.538248
       4.4477801       43.253423
       4.4492698       39.316097
       4.4507499       41.391183
       4.4522300       41.334233
       4.4537101       41.605098
       4.4552002       39.487690
       4.4566898       42.887467
       4.4581699       39.811336
       4.4596500       43.072320
       4.4611402       39.518280
       4.4626298       41.255356
       4.4641099       42.052369
       4.4656000       37.171297
       4.4670901       36.896495
       4.4685798       40.868741
       4.4700699       39.270925
       4.4715600       37.373070
       4.4730501       41.617319
       4.4745402       39.718255
       4.4760399       39.823165
       4.4775300       37.138953
       4.4790201       42.370947
       4.4805102       39.198086
       4.4819999       39.918223
       4.4835000       39.991048
       4.4850001       38.636935
       4.4864898       41.729464
       4.4879799       42.962119
       4.4894800       36.500281
       4.4909801       40.615746
       4.4924798       40.128842
       4.4939699       41.648508
       4.4954600       37.072047
       4.4969602       40.779716
       4.4984598       41.002160
       4.4999399       41.137943
       4.5014601       38.648078
       4.5029702       41.784863
       4.5044699       40.159721
       4.5059600       38.282907
       4.5074701       40.150489
       4.5089798       39.393593
       4.5104799       39.641989
       4.5119801       41.312572
       4.5134802       37.983744
       4.5149899       40.788992
       4.5164900       40.183451
       4.5180001       40.155580
       4.5195098       39.382826
       4.5210099       40.338192
       4.5225201       38.718540
       4.5240302       38.643855
       4.5255399       36.010917
       4.5270400       36.337496
       4.5285501       38.233168
       4.5300598       40.252123
       4.5315700       37.649008
       4.5330701       37.471513
       4.5345898       38.678954
       4.5361099       39.650668
       4.5376201       40.991034
       4.5391302       36.420604
       4.5406399       40.869744
       4.5421500       37.640193
       4.5436702       39.931869
       4.5451798       37.364461
       4.5467000       38.829690
       4.5482202       40.023058
       4.5497298       38.928375
       4.5512400       37.915293
       4.5527601       38.152001
       4.5542798       38.912509
       4.5558000       41.792108
       4.5573201       37.729989
       4.5588398       37.669647
       4.5603600       40.172882
       4.5618701       38.233514
       4.5633898       39.131946
       4.5649199       39.214950
       4.5664401       38.205621
       4.5679598       38.585713
       4.5694900       38.251910
       4.5710101       38.239010
       4.5725298       38.533748
       4.5740600       39.470644
       4.5755901       37.281646
       4.5771098       40.294213
       4.5786300       39.006220
       4.5801601       36.231229
       4.5816898       38.647288
       4.5832200       39.805887
       4.5847502       36.200338
       4.5862799       37.420570
       4.5878100       36.929520
       4.5893402       34.629778
       4.5908699       38.539415
       4.5924001       39.772714
       4.5939298       36.677449
       4.5954599       35.098248
       4.5969901       38.930713
       4.5985198       39.573516
       4.6000500       36.442762
       4.6015801       36.771896
       4.6031098       38.446072
       4.6046500       37.716258
       4.6061902       40.516778
       4.6077199       37.493070
       4.6092501       34.316023
       4.6107898       40.377028
       4.6123300       37.530881
       4.6138601       38.372152
       4.6153998       36.946396
       4.6169400       36.765233
       4.6184702       39.162769
       4.6200099       36.718886
       4.6215601       37.978404
       4.6230998       38.945665
       4.6246400       37.322725
       4.6261802       34.704505
       4.6277199       40.240726
       4.6292601       39.138570
       4.6308198       35.658227
       4.6323600       39.634718
       4.6339002       36.566220
       4.6354399       39.543774
       4.6369801       35.217783
       4.6385298       39.494135
       4.6400800       36.842000
       4.6416302       38.874430
       4.6431699       35.546060
       4.6447201       38.364084
       4.6462698       37.841295
       4.6478200       36.511657
       4.6493702       35.804749
       4.6509099       38.277978
       4.6524601       35.848617
       4.6540098       36.815221
       4.6555600       38.316426
       4.6571202       37.275749
       4.6586699       38.088451
       4.6602201       33.523141
       4.6617799       38.639818
       4.6633301       38.307304
       4.6648798       37.584169
       4.6664400       35.340255
       4.6680102       35.305960
       4.6695600       39.422228
       4.6711102       38.004776
       4.6726699       36.969104
       4.6742201       36.596097
       4.6757798       38.122855
       4.6773400       37.687955
       4.6788998       36.192718
       4.6804600       35.836335
       4.6820202       38.569225
       4.6835799       37.201695
       4.6851401       35.705661
       4.6867099       39.203259
       4.6882701       37.233008
       4.6898298       37.331460
       4.6914001       35.336582
       4.6929598       38.240577
       4.6945200       38.336064
       4.6960902       36.756779
       4.6976500       38.404724
       4.6992102       34.378186
       4.7007799       37.571955
       4.7023501       37.731416
       4.7039199       36.411675
       4.7054801       38.587743
       4.7070599       36.114536
       4.7086301       35.132500
       4.7101998       38.234062
       4.7117600       35.390391
       4.7133298       35.428616
       4.7149100       37.057216
       4.7164798       37.715967
       4.7180500       33.795071
       4.7196102       35.974457
       4.7211900       37.645563
       4.7227602       38.477115
       4.7243400       36.863034
       4.7259102       35.305546
       4.7274899       37.228547
       4.7290602       36.188931
       4.7306399       38.575299
       4.7322202       36.425171
       4.7338099       33.947537
       4.7353802       36.397721
       4.7369599       38.928721
       4.7385302       35.798975
       4.7401099       35.845688
       4.7416902       35.298730
       4.7432799       38.871500
       4.7448602       34.992115
       4.7464299       37.375144
       4.7480202       37.317223
       4.7495999       35.961646
       4.7511802       35.848372
       4.7527599       37.330469
       4.7543502       36.704319
       4.7559400       36.495331
       4.7575202       36.427916
       4.7591100       35.743431
       4.7607002       37.377175
       4.7622800       36.631982
       4.7638698       35.890246
       4.7654500       35.682636
       4.7670498       35.522119
       4.7686400       37.628078
       4.7702298       35.624681
       4.7718201       37.442619
       4.7734098       35.220953
       4.7749901       35.966764
       4.7765899       35.798294
       4.7781801       35.894828
       4.7797699       35.063169
       4.7813601       35.906771
       4.7829599       36.155499
       4.7845602       37.550953
       4.7861500       33.301213
       4.7877498       36.008255
       4.7893500       37.322890
       4.7909498       37.511073
       4.7925401       34.105219
       4.7941399       34.954283
       4.7957401       34.816478
       4.7973399       36.518225
       4.7989302       38.493211
       4.8005300       34.447934
       4.8021302       34.450398
       4.8037300       36.023781
       4.8053298       34.949335
       4.8069201       35.651118
       4.8085299       36.896619
       4.8101401       35.071208
       4.8117399       37.057800
       4.8133502       33.951203
       4.8149500       36.109809
       4.8165498       35.995318
       4.8181601       37.042508
       4.8197699       34.901733
       4.8213701       37.346352
       4.8229799       34.579313
       4.8245802       33.896230
       4.8261900       38.295303
       4.8277998       33.829455
       4.8294101       38.314606
       4.8310199       35.412496
       4.8326302       36.337893
       4.8342500       33.089588
       4.8358598       37.298147
       4.8374701       35.246799
       4.8390899       36.892757
       4.8406901       35.461498
       4.8422999       37.130959
       4.8439202       32.549248
       4.8455300       36.321899
       4.8471398       35.752192
       4.8487601       34.146288
       4.8503799       36.281932
       4.8520002       37.392158
       4.8536201       34.237278
       4.8552399       34.963892
       4.8568602       33.866980
       4.8584800       36.928025
       4.8600998       35.838792
       4.8617201       36.507162
       4.8633399       32.905062
       4.8649602       33.188375
       4.8665800       36.580605
       4.8681998       36.096853
       4.8698201       35.446687
       4.8714399       34.801063
       4.8730602       35.420703
       4.8746800       34.724517
       4.8763099       32.970053
       4.8779402       35.748187
       4.8795600       36.156594
       4.8811998       34.839080
       4.8828301       35.228360
       4.8844500       34.723657
       4.8860798       35.298851
       4.8877101       34.631850
       4.8893299       34.490334
       4.8909602       35.129408
       4.8925900       36.420509
       4.8942199       35.368497
       4.8958502       34.962966
       4.8974800       33.615625
       4.8991199       34.867385
       4.9007502       35.638099
       4.9023900       36.480812
       4.9040198       35.892441
       4.9056501       33.151975
       4.9072900       35.032857
       4.9089298       32.910058
       4.9105601       35.655467
       4.9122000       35.672009
       4.9138398       34.861349
       4.9154701       32.545865
       4.9171000       35.422588
       4.9187498       33.210448
       4.9203901       33.533656
       4.9220300       35.998555
       4.9236798       36.205351
       4.9253201       33.613559
       4.9269600       32.794555
       4.9285998       33.924027
       4.9302402       36.299981
       4.9318900       34.196015
       4.9335299       35.534784
       4.9351702       34.266000
       4.9368100       34.068787
       4.9384599       32.408541
       4.9401102       36.099666
       4.9417601       34.655287
       4.9434099       32.887476
       4.9450498       35.539705
       4.9466901       34.449366
       4.9483500       31.607820
       4.9499998       36.166574
       4.9516401       35.006733
       4.9533000       34.643536
       4.9549499       32.629061
       4.9566002       34.984497
       4.9582601       33.423883
       4.9599099       33.305412
       4.9615698       35.269810
       4.9632201       34.299716
       4.9648700       36.025557
       4.9665298       33.661560
       4.9681802       33.179420
       4.9698300       34.026099
       4.9714999       34.333798
       4.9731498       34.799314
       4.9748101       34.494290
       4.9764700       35.925447
       4.9781299       31.998964
       4.9797802       32.622288
       4.9814401       35.056295
       4.9831100       33.257471
       4.9847698       35.120978
       4.9864302       34.335700
       4.9880800       35.228408
       4.9897499       31.788591
       4.9914098       32.000420
       4.9930801       33.936578
       4.9947400       33.839002
       4.9964099       35.389904
       4.9980698       35.163938
       4.9997201       32.019200
       5.0014000       32.317437
       5.0030799       33.394074
       5.0047402       35.613840
       5.0064001       33.474938
       5.0080700       33.382589
       5.0097499       32.899072
       5.0114298       34.797712
       5.0130901       32.600910
       5.0147500       32.693570
       5.0164299       34.575218
       5.0180998       32.249913
       5.0197701       34.633839
       5.0214500       32.663833
       5.0231199       33.680598
       5.0247998       33.343019
       5.0264702       35.138412
       5.0281501       32.006921
       5.0298200       33.094020
       5.0314999       33.788890
       5.0331702       32.581490
       5.0348501       34.275447
       5.0365200       34.297400
       5.0382099       34.689124
       5.0398998       32.559802
       5.0415702       34.203102
       5.0432501       31.074201
       5.0449200       35.232857
       5.0466099       32.368678
       5.0482998       34.865352
       5.0499701       34.688119
       5.0516601       33.966763
       5.0533500       31.594967
       5.0550299       31.620546
       5.0567098       34.113474
       5.0584002       32.484235
       5.0600901       33.629822
       5.0617700       34.333439
       5.0634599       34.362982
       5.0651498       32.753253
       5.0668402       29.913488
       5.0685201       34.432926
       5.0702100       33.673423
       5.0719099       33.387224
       5.0735998       34.153741
       5.0752902       32.268997
       5.0769901       32.333780
       5.0786700       32.381968
       5.0803599       33.406903
       5.0820599       33.280606
       5.0837498       31.484183
       5.0854402       34.628511
       5.0871401       32.931113
       5.0888400       31.749814
       5.0905399       34.443738
       5.0922399       30.938963
       5.0939398       32.645966
       5.0956202       32.766283
       5.0973101       32.433611
       5.0990100       33.415587
       5.1007099       32.823667
       5.1024098       33.339309
       5.1041098       33.171080
       5.1058202       30.900336
       5.1075401       32.703540
       5.1092401       31.820315
       5.1109400       34.002419
       5.1126399       32.099175
       5.1143398       33.402002
       5.1160402       33.381237
       5.1177502       32.125482
       5.1194601       31.054057
       5.1211600       31.834550
       5.1228600       33.078435
       5.1245799       32.390257
       5.1262898       33.290734
       5.1279898       33.485764
       5.1297002       33.383684
       5.1314101       31.665618
       5.1331201       29.929450
       5.1348400       32.637216
       5.1365499       31.728770
       5.1382599       34.161141
       5.1399798       33.662517
       5.1416898       33.406404
       5.1434002       31.124585
       5.1451101       30.056470
       5.1468201       31.532483
       5.1485500       33.508140
       5.1502600       32.664511
       5.1519699       32.522505
       5.1536999       32.753824
       5.1554098       32.210082
       5.1571202       33.625952
       5.1588502       30.648318
       5.1605701       31.815881
       5.1623001       31.749739
       5.1640100       33.920099
       5.1657200       32.165398
       5.1674500       31.616846
       5.1691699       32.575932
       5.1708999       32.825942
       5.1726298       31.755525
       5.1743498       32.010664
       5.1760702       32.948934
       5.1778002       32.243527
       5.1795201       31.851189
       5.1812501       32.848480
       5.1829700       32.274914
       5.1847000       31.609177
       5.1864200       31.587104
       5.1881599       30.323445
       5.1898999       32.734852
       5.1916299       32.015391
       5.1933498       32.730055
       5.1950798       32.165955
       5.1968098       33.732357
       5.1985502       30.851201
       5.2002702       29.957227
       5.2020102       32.820560
       5.2037501       30.545605
       5.2054701       31.945496
       5.2072101       32.702261
       5.2089500       32.663229
       5.2106900       31.969917
       5.2124200       29.666824
       5.2141600       30.604670
       5.2158999       33.022455
       5.2176399       30.541002
       5.2193799       33.070267
       5.2211099       31.977753
       5.2228599       31.442435
       5.2245998       31.205532
       5.2263398       30.925831
       5.2280898       31.661875
       5.2298298       31.686036
       5.2315602       30.979582
       5.2333102       32.404284
       5.2350602       32.046747
       5.2368102       31.618230
       5.2385502       32.530630
       5.2402902       30.082541
       5.2420402       31.066252
       5.2437901       32.644996
       5.2455401       31.396341
       5.2472901       30.822665
       5.2490401       31.215127
       5.2507901       32.980491
       5.2525401       30.793362
       5.2542901       31.895837
       5.2560401       30.336260
       5.2577901       30.765074
       5.2595401       32.536471
       5.2612901       30.880490
       5.2630501       31.015340
       5.2648101       32.602117
       5.2665601       31.350164
       5.2683101       30.223595
       5.2700601       31.228819
       5.2718201       31.248985
       5.2735901       30.642755
       5.2753401       32.787426
       5.2771001       30.995050
       5.2788601       32.650378
       5.2806101       30.517288
       5.2823701       29.799065
       5.2841401       31.962995
       5.2859001       30.278758
       5.2876601       31.263484
       5.2894201       32.083562
       5.2911901       32.213625
       5.2929502       30.370911
       5.2947102       29.939518
       5.2964702       30.032846
       5.2982502       32.270942
       5.3000102       30.919075
       5.3017702       31.132280
       5.3035498       31.404705
       5.3053098       31.231821
       5.3070798       30.948001
       5.3088498       29.097573
       5.3106298       30.872831
       5.3123999       30.947751
       5.3141599       31.569298
       5.3159299       29.536199
       5.3176999       31.822268
       5.3194699       30.766963
       5.3212500       32.099897
       5.3230200       29.912841
       5.3248000       31.222025
       5.3265700       29.778855
       5.3283501       30.310112
       5.3301201       31.498120
       5.3319001       29.893464
       5.3336701       31.583969
       5.3354502       31.699104
       5.3372402       29.659381
       5.3390298       30.019456
       5.3407998       29.084806
       5.3425798       31.153220
       5.3443499       31.121966
       5.3461399       30.161343
       5.3479199       31.402626
       5.3497000       31.448471
       5.3514900       29.558192
       5.3532701       30.114355
       5.3550501       28.926407
       5.3568401       30.696695
       5.3586202       30.691136
       5.3604102       31.517286
       5.3621998       30.039170
       5.3639898       31.002009
       5.3657799       30.029696
       5.3675599       29.929300
       5.3693500       30.843064
       5.3711400       29.240313
       5.3729401       30.789054
       5.3747201       31.669805
       5.3765101       30.803500
       5.3783102       29.396127
       5.3800998       29.220616
       5.3818898       30.225904
       5.3836899       30.579990
       5.3854899       31.425496
       5.3872700       29.796800
       5.3890600       29.914052
       5.3908601       30.548106
       5.3926601       31.010070
       5.3944602       29.283953
       5.3962598       29.861326
       5.3980598       29.898659
       5.3998599       31.592703
       5.4016600       29.282720
       5.4034600       30.810199
       5.4052601       29.849068
       5.4070601       31.236822
       5.4088602       29.046778
       5.4106598       29.611929
       5.4124599       29.708393
       5.4142699       30.250773
       5.4160900       30.787389
       5.4178901       29.625457
       5.4196901       30.698597
       5.4215002       29.993359
       5.4233098       29.211206
       5.4251099       29.896018
       5.4269199       28.290444
       5.4287400       30.779304
       5.4305401       30.267879
       5.4323502       30.614856
       5.4341602       29.991735
       5.4359798       30.895907
       5.4377899       28.830731
       5.4396000       28.572679
       5.4414101       30.742923
       5.4432201       28.719082
       5.4450402       30.313787
       5.4468498       30.434197
       5.4486699       30.972936
       5.4504900       29.398957
       5.4523001       29.186787
       5.4541202       28.838424
       5.4559398       29.295045
       5.4577498       30.312712
       5.4595699       28.798481
       5.4614000       30.362673
       5.4632201       29.996555
       5.4650402       29.887552
       5.4668498       28.630343
       5.4686799       29.090655
       5.4705000       30.018572
       5.4723201       28.883716
       5.4741502       29.879086
       5.4759798       29.823649
       5.4777999       28.974469
       5.4796200       30.402509
       5.4814501       29.160149
       5.4832702       29.110272
       5.4850998       29.242724
       5.4869399       29.805622
       5.4887700       29.866286
       5.4906001       28.708337
       5.4924202       30.113802
       5.4942498       29.050080
       5.4960899       29.655615
       5.4979200       29.195430
       5.4994102       28.386818
